AF3,F7,F3,FC5,T7,P7,O1,O2,P8,T8,FC6,F4,F8,AF4,Label
4124.61538434, 4127.05128178, 4123.20512793, 4113.33333306, 4105.25640998, 4111.41025614, 4109.23076896, 4101.92307658, 4106.15384588, 4112.82051255, 4117.56410229, 4116.53846126, 4108.46153819, 4125.25640998,0
4124.61538434, 4127.05128178, 4123.20512793, 4113.33333306, 4105.25640998, 4111.41025614, 4109.23076896, 4101.92307658, 4106.15384588, 4112.82051255, 4117.56410229, 4116.53846126, 4108.46153819, 4125.25640998,0
4111.41025614, 4122.30769203, 4124.10256383, 4119.10256383, 4116.41025614, 4116.53846126, 4116.15384588, 4109.48717921, 4115.64102537, 4111.28205101, 4133.58974332, 4124.61538434, 4110.64102537, 4115.64102537,0
4105.12820485, 4120.51282024, 4124.99999973, 4119.35897408, 4118.20512793, 4126.53846126, 4119.48717921, 4115.76923050, 4123.84615357, 4121.92307665, 4140.51282031, 4122.82051255, 4114.99999973, 4116.28205101,0
4110.12820485, 4110.12820485, 4112.56410229, 4104.23076896, 4118.97435870, 4104.87179460, 4100.89743555, 4098.20512786, 4103.46153819, 4109.48717921, 4116.79487152, 4103.71794844, 4103.97435870, 4128.46153819,0
4110.64102537, 4119.23076896, 4124.35897408, 4118.46153819, 4114.87179460, 4105.89743562, 4112.17948691, 4101.02564068, 4100.25640991, 4102.82051255, 4128.46153819, 4119.23076896, 4114.48717921, 4121.66666639,0
4110.64102537, 4119.23076896, 4124.35897408, 4118.46153819, 4114.87179460, 4105.89743562, 4112.17948691, 4101.02564068, 4100.25640991, 4102.82051255, 4128.46153819, 4119.23076896, 4114.48717921, 4121.66666639,0
4116.53846126, 4133.97435870, 4135.76923056, 4132.69230742, 4103.20512793, 4124.87179460, 4133.84615357, 4112.56410229, 4112.94871767, 4109.48717921, 4147.56410236, 4136.79487159, 4123.33333306, 4117.17948691,0
4123.97435870, 4124.35897408, 4119.61538434, 4118.97435870, 4102.05128171, 4116.66666639, 4120.64102537, 4101.15384581, 4111.92307665, 4108.46153819, 4125.89743562, 4118.84615357, 4103.20512793, 4128.33333306,0
4122.30769203, 4131.02564075, 4130.89743562, 4129.35897408, 4129.23076896, 4117.82051255, 4116.92307665, 4111.02564075, 4119.99999973, 4121.92307665, 4129.10256383, 4127.05128178, 4115.25640998, 4124.35897408,0
4120.38461511, 4143.84615364, 4147.17948697, 4146.02564082, 4141.28205108, 4125.38461511, 4125.25640998, 4135.12820485, 4131.53846126, 4132.17948691, 4150.76923056, 4146.92307672, 4144.99999980, 4119.99999973,0
4116.28205101, 4124.23076896, 4122.56410229, 4121.15384588, 4109.48717921, 4107.05128178, 4117.43589716, 4127.94871767, 4126.15384588, 4117.69230742, 4131.28205101, 4124.35897408, 4120.64102537, 4128.46153819,0
4110.76923050, 4111.79487152, 4110.12820485, 4102.56410229, 4085.38461504, 4104.35897408, 4111.79487152, 4116.79487152, 4124.48717921, 4118.20512793, 4117.56410229, 4108.07692280, 4097.30769196, 4125.12820485,0
4114.74358947, 4121.66666639, 4128.97435870, 4119.48717921, 4102.56410229, 4121.92307665, 4114.35897408, 4124.87179460, 4130.38461511, 4137.17948697, 4141.66666646, 4125.25640998, 4123.58974332, 4122.17948691,0
4118.97435870, 4124.23076896, 4130.38461511, 4129.74358947, 4116.15384588, 4122.56410229, 4117.82051255, 4126.41025614, 4124.23076896, 4135.51282031, 4155.64102544, 4132.69230742, 4141.02564082, 4128.84615357,0
4110.51282024, 4120.12820485, 4122.82051255, 4120.64102537, 4111.66666639, 4128.46153819, 4126.02564075, 4122.82051255, 4122.17948691, 4130.25640998, 4149.48717928, 4128.71794844, 4133.33333306, 4121.28205101,0
4111.92307665, 4113.20512793, 4122.17948691, 4102.17948684, 4113.46153819, 4124.87179460, 4119.10256383, 4117.30769203, 4126.66666639, 4128.71794844, 4139.61538441, 4123.84615357, 4122.05128178, 4118.20512793,0
4118.84615357, 4111.79487152, 4118.33333306, 4098.58974325, 4110.51282024, 4101.66666632, 4108.58974332, 4111.79487152, 4124.61538434, 4124.48717921, 4139.87179467, 4120.12820485, 4119.99999973, 4124.74358947,0
4116.41025614, 4134.48717921, 4132.69230742, 4125.64102537, 4111.66666639, 4117.17948691, 4129.99999973, 4122.43589716, 4131.66666639, 4150.89743569, 4168.84615371, 4139.61538441, 4152.30769210, 4118.58974332,0
4114.99999973, 4144.74358954, 4146.28205108, 4134.61538434, 4119.99999973, 4141.41025621, 4133.84615357, 4125.12820485, 4136.28205108, 4165.51282031, 4176.41025628, 4149.99999980, 4162.56410236, 4118.07692280,0
4115.12820485, 4121.15384588, 4126.02564075, 4107.94871767, 4105.51282024, 4115.64102537, 4100.25640991, 4103.71794844, 4117.17948691, 4124.74358947, 4140.64102544, 4123.71794844, 4115.25640998, 4128.58974332,0
4116.79487152, 4116.28205101, 4118.84615357, 4103.20512793, 4100.76923043, 4104.10256383, 4099.48717914, 4102.56410229, 4109.10256383, 4112.30769203, 4136.28205108, 4118.71794844, 4107.82051255, 4124.10256383,0
4127.94871767, 4140.12820492, 4145.38461518, 4131.15384588, 4131.53846126, 4131.92307665, 4129.99999973, 4128.46153819, 4133.07692280, 4152.56410236, 4167.69230749, 4148.84615364, 4153.20512800, 4121.79487152,0
4131.53846126, 4142.94871774, 4151.02564082, 4140.89743569, 4125.76923050, 4126.66666639, 4134.23076896, 4135.12820485, 4143.71794851, 4157.82051262, 4168.07692287, 4154.35897415, 4158.58974339, 4129.61538434,0
4113.46153819, 4131.15384588, 4134.74358947, 4128.58974332, 4092.82051248, 4110.64102537, 4127.17948691, 4128.07692280, 4135.38461518, 4141.66666646, 4154.10256390, 4139.35897415, 4136.15384595, 4120.64102537,0
4109.99999973, 4125.89743562, 4135.64102544, 4119.10256383, 4106.02564075, 4124.87179460, 4125.38461511, 4126.02564075, 4134.99999973, 4147.05128185, 4154.61538441, 4135.38461518, 4129.23076896, 4112.69230742,0
4122.43589716, 4119.48717921, 4138.33333313, 4116.79487152, 4127.56410229, 4128.46153819, 4115.51282024, 4114.23076896, 4123.07692280, 4138.07692287, 4151.66666646, 4131.02564075, 4124.61538434, 4120.51282024,0
4117.43589716, 4121.41025614, 4135.38461518, 4120.76923050, 4126.15384588, 4124.87179460, 4117.94871767, 4110.51282024, 4111.79487152, 4124.35897408, 4152.30769210, 4130.51282024, 4127.56410229, 4122.56410229,0
4112.30769203, 4128.07692280, 4138.46153826, 4123.20512793, 4136.28205108, 4131.28205101, 4126.15384588, 4120.38461511, 4120.38461511, 4131.53846126, 4153.58974339, 4136.28205108, 4134.23076896, 4118.97435870,0
4121.92307665, 4122.05128178, 4133.97435870, 4118.07692280, 4126.28205101, 4126.41025614, 4119.87179460, 4113.71794844, 4120.51282024, 4129.10256383, 4139.35897415, 4131.15384588, 4126.66666639, 4123.46153819,0
4118.33333306, 4127.56410229, 4126.79487152, 4116.41025614, 4099.61538427, 4127.94871767, 4122.43589716, 4106.15384588, 4111.02564075, 4114.99999973, 4136.28205108, 4123.46153819, 4124.10256383, 4122.94871767,0
4110.38461511, 4140.51282031, 4128.84615357, 4121.92307665, 4110.89743562, 4135.64102544, 4131.66666639, 4115.25640998, 4116.92307665, 4117.17948691, 4143.58974339, 4122.82051255, 4126.92307665, 4120.38461511,0
4119.74358947, 4127.05128178, 4125.38461511, 4126.79487152, 4138.84615364, 4130.51282024, 4122.43589716, 4117.82051255, 4121.53846126, 4123.20512793, 4131.02564075, 4115.51282024, 4112.82051255, 4125.64102537,0
4114.99999973, 4113.71794844, 4118.20512793, 4123.97435870, 4142.69230749, 4132.43589716, 4114.48717921, 4113.07692280, 4116.02564075, 4122.43589716, 4120.12820485, 4110.12820485, 4104.23076896, 4120.64102537,0
4101.79487145, 4116.28205101, 4120.38461511, 4113.46153819, 4133.07692280, 4135.64102544, 4119.99999973, 4115.25640998, 4117.43589716, 4118.71794844, 4128.07692280, 4117.94871767, 4112.56410229, 4114.35897408,0
4116.15384588, 4118.33333306, 4126.53846126, 4113.97435870, 4124.10256383, 4136.15384595, 4129.61538434, 4123.97435870, 4123.97435870, 4122.43589716, 4134.48717921, 4126.66666639, 4125.12820485, 4123.33333306,0
4129.23076896, 4132.30769203, 4135.38461518, 4132.05128178, 4134.35897408, 4151.66666646, 4143.20512800, 4138.46153826, 4136.79487159, 4143.58974339, 4145.25641005, 4133.07692280, 4140.25641005, 4128.20512793,0
4118.07692280, 4147.05128185, 4141.15384595, 4138.07692287, 4147.05128185, 4153.97435877, 4146.41025621, 4145.51282031, 4148.20512800, 4158.84615364, 4160.76923056, 4139.23076903, 4146.66666646, 4121.79487152,0
4118.84615357, 4129.35897408, 4130.38461511, 4123.46153819, 4130.64102537, 4118.46153819, 4126.92307665, 4133.71794844, 4136.66666646, 4150.64102544, 4155.51282031, 4134.23076896, 4137.30769210, 4123.33333306,0
4125.12820485, 4116.28205101, 4122.30769203, 4118.07692280, 4121.53846126, 4108.20512793, 4111.02564075, 4123.33333306, 4122.05128178, 4139.35897415, 4147.69230749, 4128.46153819, 4133.58974332, 4118.46153819,0
4120.76923050, 4134.23076896, 4136.53846133, 4133.33333306, 4136.15384595, 4136.79487159, 4122.30769203, 4130.38461511, 4130.25640998, 4138.58974339, 4155.64102544, 4137.43589723, 4145.51282031, 4109.87179460,0
4124.87179460, 4141.92307672, 4147.30769210, 4139.23076903, 4130.12820485, 4144.48717928, 4140.89743569, 4135.64102544, 4136.53846133, 4135.64102544, 4151.53846133, 4143.33333313, 4144.74358954, 4117.30769203,0
4122.56410229, 4128.84615357, 4134.61538434, 4124.61538434, 4113.84615357, 4128.58974332, 4138.46153826, 4120.25640998, 4119.61538434, 4123.20512793, 4132.94871767, 4129.87179460, 4123.97435870, 4118.84615357,0
4108.07692280, 4121.15384588, 4122.05128178, 4120.38461511, 4125.12820485, 4124.74358947, 4124.61538434, 4105.25640998, 4108.46153819, 4116.02564075, 4130.38461511, 4115.25640998, 4107.56410229, 4114.74358947,0
4110.51282024, 4126.66666639, 4127.17948691, 4133.20512793, 4141.15384595, 4132.30769203, 4118.20512793, 4113.33333306, 4113.97435870, 4117.56410229, 4135.89743569, 4118.33333306, 4106.02564075, 4120.76923050,0
4118.46153819, 4133.20512793, 4134.35897408, 4134.99999973, 4135.25640998, 4134.23076896, 4122.43589716, 4122.43589716, 4119.48717921, 4115.76923050, 4133.07692280, 4127.17948691, 4114.10256383, 4120.25640998,0
4109.61538434, 4127.56410229, 4128.20512793, 4123.97435870, 4114.48717921, 4124.35897408, 4124.48717921, 4114.10256383, 4117.94871767, 4111.66666639, 4133.46153819, 4122.94871767, 4116.41025614, 4114.48717921,0
4113.46153819, 4125.51282024, 4124.35897408, 4120.38461511, 4103.33333306, 4115.25640998, 4120.12820485, 4110.25640998, 4117.94871767, 4115.38461511, 4138.20512800, 4116.79487152, 4118.33333306, 4121.92307665,0
4121.28205101, 4133.46153819, 4132.94871767, 4125.12820485, 4127.05128178, 4125.89743562, 4119.35897408, 4121.66666639, 4126.41025614, 4126.28205101, 4144.74358954, 4127.05128178, 4129.99999973, 4118.71794844,0
4117.82051255, 4130.64102537, 4135.64102544, 4123.71794844, 4137.30769210, 4139.48717928, 4124.87179460, 4128.33333306, 4132.17948691, 4134.61538434, 4149.48717928, 4138.58974339, 4136.53846133, 4111.53846126,0
4123.71794844, 4123.20512793, 4130.12820485, 4117.56410229, 4102.69230742, 4132.82051255, 4134.48717921, 4127.69230742, 4132.05128178, 4139.23076903, 4149.87179467, 4137.56410236, 4136.53846133, 4122.94871767,0
4127.82051255, 4131.66666639, 4130.64102537, 4121.66666639, 4105.89743562, 4130.25640998, 4142.30769210, 4132.30769203, 4135.38461518, 4139.87179467, 4150.76923056, 4136.66666646, 4138.07692287, 4123.46153819,0
4119.74358947, 4135.12820485, 4131.53846126, 4128.58974332, 4143.97435877, 4143.84615364, 4141.53846133, 4135.76923056, 4136.53846133, 4140.64102544, 4148.71794851, 4132.30769203, 4132.43589716, 4114.74358947,0
4118.33333306, 4122.82051255, 4126.28205101, 4121.15384588, 4133.07692280, 4146.02564082, 4138.20512800, 4133.71794844, 4129.74358947, 4143.20512800, 4141.53846133, 4123.46153819, 4130.89743562, 4119.35897408,0
4123.20512793, 4129.99999973, 4129.74358947, 4118.58974332, 4111.53846126, 4134.48717921, 4152.30769210, 4139.35897415, 4135.89743569, 4138.20512800, 4141.02564082, 4128.58974332, 4146.92307672, 4116.15384588,0
4118.84615357, 4141.79487159, 4136.15384595, 4126.92307665, 4125.25640998, 4142.30769210, 4163.20512800, 4144.61538441, 4147.05128185, 4137.43589723, 4146.15384595, 4137.43589723, 4143.71794851, 4108.46153819,0
4116.41025614, 4121.15384588, 4122.56410229, 4116.79487152, 4130.38461511, 4145.38461518, 4132.05128178, 4127.94871767, 4130.12820485, 4136.53846133, 4138.46153826, 4126.02564075, 4112.94871767, 4122.82051255,0
4113.46153819, 4111.28205101, 4112.56410229, 4107.05128178, 4111.53846126, 4125.51282024, 4110.12820485, 4114.74358947, 4114.35897408, 4123.84615357, 4134.61538434, 4116.15384588, 4111.79487152, 4127.30769203,0
4110.12820485, 4124.87179460, 4122.56410229, 4114.99999973, 4104.23076896, 4121.41025614, 4129.10256383, 4124.99999973, 4125.51282024, 4126.02564075, 4146.41025621, 4125.89743562, 4137.43589723, 4112.56410229,0
4118.46153819, 4119.87179460, 4127.56410229, 4114.74358947, 4116.53846126, 4136.28205108, 4135.12820485, 4130.76923050, 4130.25640998, 4139.35897415, 4153.84615364, 4134.87179460, 4140.38461518, 4115.64102537,0
4122.94871767, 4117.56410229, 4130.89743562, 4116.15384588, 4128.97435870, 4131.92307665, 4122.17948691, 4128.33333306, 4125.51282024, 4133.71794844, 4157.43589723, 4141.92307672, 4138.71794851, 4124.23076896,0
4115.51282024, 4134.10256383, 4140.64102544, 4126.92307665, 4119.35897408, 4120.38461511, 4124.35897408, 4131.02564075, 4128.58974332, 4123.46153819, 4152.56410236, 4144.48717928, 4141.53846133, 4116.15384588,0
4110.76923050, 4113.46153819, 4125.76923050, 4112.05128178, 4100.89743555, 4119.99999973, 4115.89743562, 4119.87179460, 4119.23076896, 4118.58974332, 4134.61538434, 4120.89743562, 4112.56410229, 4116.28205101,0
4108.71794844, 4075.89743555, 4093.46153812, 4084.48717914, 4096.53846119, 4109.74358947, 4099.48717914, 4097.56410222, 4099.99999966, 4102.30769196, 4116.15384588, 4091.28205094, 4087.69230735, 4122.17948691,0
4105.76923050, 4096.41025607, 4097.17948684, 4091.28205094, 4097.43589709, 4115.51282024, 4119.87179460, 4101.79487145, 4106.92307665, 4099.61538427, 4110.25640998, 4096.28205094, 4104.61538434, 4116.41025614,0
4117.94871767, 4133.58974332, 4125.89743562, 4115.25640998, 4111.41025614, 4141.79487159, 4139.23076903, 4118.07692280, 4123.97435870, 4118.97435870, 4123.20512793, 4121.28205101, 4123.20512793, 4118.84615357,0
4131.66666639, 4141.79487159, 4136.41025621, 4132.69230742, 4138.97435877, 4140.51282031, 4131.02564075, 4117.43589716, 4125.64102537, 4131.28205101, 4152.17948697, 4136.02564082, 4126.15384588, 4123.46153819,0
4125.38461511, 4143.84615364, 4138.71794851, 4147.05128185, 4141.28205108, 4121.53846126, 4138.97435877, 4120.38461511, 4129.61538434, 4139.23076903, 4171.92307679, 4146.02564082, 4141.02564082, 4111.53846126,0
4119.23076896, 4139.23076903, 4139.48717928, 4140.51282031, 4116.15384588, 4123.46153819, 4141.66666646, 4126.41025614, 4136.41025621, 4135.64102544, 4162.69230749, 4146.66666646, 4150.38461518, 4109.61538434,0
4124.74358947, 4131.79487152, 4134.48717921, 4126.79487152, 4125.76923050, 4139.99999980, 4120.64102537, 4124.23076896, 4137.17948697, 4131.53846126, 4154.61538441, 4138.71794851, 4140.89743569, 4121.28205101,0
4122.05128178, 4151.66666646, 4142.17948697, 4139.99999980, 4146.02564082, 4144.61538441, 4129.61538434, 4130.25640998, 4143.33333313, 4161.15384595, 4170.12820499, 4147.94871774, 4150.38461518, 4116.79487152,0
4121.41025614, 4162.69230749, 4151.41025621, 4147.17948697, 4116.15384588, 4140.89743569, 4149.99999980, 4132.05128178, 4140.89743569, 4172.05128192, 4175.64102551, 4154.35897415, 4159.23076903, 4115.38461511,0
4120.64102537, 4127.69230742, 4129.23076896, 4122.05128178, 4105.25640998, 4133.58974332, 4129.74358947, 4109.74358947, 4120.12820485, 4132.43589716, 4151.41025621, 4125.25640998, 4127.56410229, 4125.89743562,0
4105.76923050, 4103.07692280, 4107.94871767, 4107.43589716, 4135.89743569, 4126.28205101, 4115.76923050, 4099.87179453, 4113.07692280, 4110.64102537, 4128.97435870, 4101.92307658, 4105.89743562, 4120.25640998,0
4105.12820485, 4119.35897408, 4119.61538434, 4115.89743562, 4137.82051262, 4136.02564082, 4133.20512793, 4109.61538434, 4119.23076896, 4125.76923050, 4132.69230742, 4113.33333306, 4113.58974332, 4115.38461511,0
4116.53846126, 4126.66666639, 4123.97435870, 4111.79487152, 4116.53846126, 4144.48717928, 4134.35897408, 4104.23076896, 4108.97435870, 4118.71794844, 4134.87179460, 4115.12820485, 4104.99999973, 4122.17948691,0
4117.56410229, 4121.92307665, 4118.84615357, 4107.05128178, 4114.10256383, 4134.35897408, 4132.05128178, 4102.17948684, 4104.87179460, 4099.35897402, 4130.38461511, 4108.20512793, 4099.23076889, 4121.28205101,0
4125.51282024, 4134.87179460, 4140.25641005, 4128.71794844, 4116.28205101, 4133.71794844, 4149.61538441, 4121.15384588, 4123.20512793, 4114.99999973, 4139.99999980, 4129.10256383, 4128.58974332, 4119.74358947,0
4125.51282024, 4134.87179460, 4140.25641005, 4128.71794844, 4116.28205101, 4133.71794844, 4149.61538441, 4121.15384588, 4123.20512793, 4114.99999973, 4139.99999980, 4129.10256383, 4128.58974332, 4119.74358947,0
4129.74358947, 4136.15384595, 4149.61538441, 4133.46153819, 4119.23076896, 4132.69230742, 4132.69230742, 4119.99999973, 4122.43589716, 4126.02564075, 4138.33333313, 4133.71794844, 4128.33333306, 4124.87179460,0
4111.41025614, 4127.43589716, 4139.61538441, 4118.07692280, 4134.61538434, 4120.12820485, 4101.53846119, 4108.46153819, 4108.58974332, 4113.58974332, 4132.43589716, 4119.61538434, 4102.43589709, 4119.87179460,0
4117.30769203, 4142.43589723, 4155.76923056, 4129.99999973, 4138.71794851, 4128.58974332, 4124.87179460, 4125.64102537, 4122.94871767, 4123.58974332, 4149.48717928, 4135.25640998, 4117.69230742, 4120.51282024,0
4134.87179460, 4155.38461518, 4166.53846133, 4149.23076903, 4148.97435877, 4149.61538441, 4149.35897415, 4137.56410236, 4141.79487159, 4149.10256390, 4153.84615364, 4146.15384595, 4141.28205108, 4125.76923050,0
4119.99999973, 4145.89743569, 4153.97435877, 4150.12820492, 4144.99999980, 4146.92307672, 4136.53846133, 4127.05128178, 4137.05128185, 4149.48717928, 4148.33333313, 4137.17948697, 4141.02564082, 4117.82051255,0
4115.89743562, 4138.84615364, 4157.05128185, 4147.17948697, 4115.12820485, 4138.07692287, 4141.79487159, 4134.23076896, 4137.05128185, 4146.66666646, 4159.23076903, 4143.71794851, 4138.07692287, 4116.53846126,0
4130.51282024, 4134.74358947, 4152.56410236, 4130.51282024, 4125.89743562, 4137.17948697, 4155.38461518, 4148.33333313, 4143.46153826, 4155.64102544, 4143.97435877, 4136.66666646, 4126.66666639, 4125.25640998,0
4121.92307665, 4134.10256383, 4130.51282024, 4110.38461511, 4159.23076903, 4140.64102544, 4141.79487159, 4140.64102544, 4138.71794851, 4152.30769210, 4121.53846126, 4115.38461511, 4118.20512793, 4121.41025614,0
4117.05128178, 4137.82051262, 4136.28205108, 4115.25640998, 4139.74358954, 4148.07692287, 4137.82051262, 4132.43589716, 4135.25640998, 4140.64102544, 4145.51282031, 4127.94871767, 4132.05128178, 4120.12820485,0
4135.12820485, 4136.92307672, 4163.84615364, 4128.20512793, 4115.89743562, 4144.99999980, 4153.58974339, 4141.02564082, 4140.12820492, 4143.33333313, 4182.17948704, 4157.30769210, 4147.82051262, 4128.71794844,0
4129.61538434, 4145.38461518, 4181.02564089, 4132.56410229, 4145.38461518, 4150.38461518, 4158.71794851, 4151.02564082, 4148.46153826, 4165.51282031, 4201.41025634, 4176.66666653, 4157.94871774, 4119.48717921,0
4119.74358947, 4157.94871774, 4189.61538448, 4133.46153819, 4138.46153826, 4160.64102544, 4166.41025621, 4156.41025621, 4154.35897415, 4176.41025628, 4221.92307686, 4194.61538448, 4173.46153833, 4114.23076896,0
4134.87179460, 4153.71794851, 4193.20512807, 4130.89743562, 4107.43589716, 4145.51282031, 4180.38461525, 4156.15384595, 4154.99999980, 4168.46153833, 4241.15384616, 4205.76923070, 4186.92307679, 4125.12820485,0
4139.23076903, 4156.02564082, 4191.92307679, 4135.64102544, 4140.25641005, 4146.28205108, 4173.33333320, 4148.84615364, 4148.20512800, 4167.43589723, 4244.48717949, 4205.12820506, 4185.51282038, 4123.20512793,0
4131.92307665, 4168.07692287, 4187.94871781, 4133.97435870, 4168.58974345, 4169.99999986, 4155.25641005, 4144.35897415, 4141.66666646, 4168.46153833, 4229.48717942, 4198.07692294, 4172.56410243, 4119.99999973,0
4141.02564082, 4166.15384595, 4182.30769217, 4121.15384588, 4146.53846133, 4166.79487159, 4157.69230749, 4154.87179467, 4151.15384595, 4160.12820492, 4212.82051275, 4191.02564089, 4167.69230749, 4126.41025614,0
4145.12820492, 4169.87179474, 4186.41025628, 4129.35897408, 4132.94871767, 4154.23076903, 4175.76923063, 4166.02564082, 4162.94871774, 4163.71794851, 4219.10256404, 4194.61538448, 4174.74358961, 4121.02564075,0
4138.71794851, 4177.30769217, 4193.71794858, 4134.48717921, 4143.97435877, 4158.84615364, 4174.99999986, 4160.25641005, 4157.43589723, 4174.10256397, 4217.56410250, 4199.74358961, 4181.15384602, 4117.17948691,0
4144.10256390, 4163.84615364, 4190.64102551, 4117.56410229, 4137.17948697, 4155.38461518, 4169.74358961, 4159.74358954, 4153.46153826, 4167.05128185, 4203.97435891, 4196.41025628, 4182.82051269, 4126.92307665,0
4137.69230749, 4147.30769210, 4181.41025628, 4107.94871767, 4119.23076896, 4152.43589723, 4176.92307679, 4165.38461518, 4156.66666646, 4156.92307672, 4210.51282045, 4191.02564089, 4177.30769217, 4123.58974332,0
4125.12820485, 4136.92307672, 4169.10256397, 4098.84615350, 4122.43589716, 4158.58974339, 4170.25641012, 4152.30769210, 4143.46153826, 4155.76923056, 4206.53846147, 4180.51282038, 4161.53846133, 4118.07692280,0
4147.17948697, 4137.94871774, 4173.07692294, 4096.15384581, 4145.64102544, 4163.33333313, 4164.99999980, 4145.51282031, 4135.51282031, 4163.20512800, 4196.02564089, 4182.17948704, 4162.30769210, 4127.43589716,0
4163.46153826, 4148.33333313, 4186.41025628, 4106.02564075, 4150.64102544, 4165.76923056, 4178.71794858, 4154.99999980, 4144.61538441, 4159.35897415, 4199.35897422, 4193.84615371, 4173.20512807, 4126.66666639,0
4145.51282031, 4145.25641005, 4179.99999986, 4100.64102530, 4121.79487152, 4163.84615364, 4184.99999986, 4154.10256390, 4142.82051262, 4141.79487159, 4192.94871781, 4188.46153833, 4162.17948697, 4121.66666639,0
4139.23076903, 4125.64102537, 4162.56410236, 4081.15384581, 4108.71794844, 4154.35897415, 4170.38461525, 4144.74358954, 4135.64102544, 4140.51282031, 4177.30769217, 4171.66666653, 4144.23076903, 4128.33333306,0
4143.46153826, 4135.89743569, 4167.30769210, 4092.94871761, 4122.82051255, 4144.35897415, 4173.71794858, 4153.07692287, 4144.61538441, 4158.20512800, 4186.02564089, 4173.46153833, 4154.48717928, 4125.64102537,0
4141.92307672, 4171.02564089, 4192.82051269, 4125.76923050, 4130.89743562, 4158.58974339, 4201.53846147, 4171.28205115, 4161.66666646, 4171.41025628, 4208.20512814, 4194.23076910, 4173.84615371, 4119.23076896,0
4141.28205108, 4170.76923063, 4192.05128192, 4126.66666639, 4130.25640998, 4177.94871781, 4193.84615371, 4166.15384595, 4160.38461518, 4163.71794851, 4201.79487173, 4192.94871781, 4168.20512807, 4122.30769203,0
4130.64102537, 4139.10256390, 4158.07692287, 4100.38461504, 4130.38461511, 4157.94871774, 4147.94871774, 4138.07692287, 4137.30769210, 4142.94871774, 4177.82051269, 4159.48717928, 4143.97435877, 4124.48717921,0
4122.43589716, 4130.51282024, 4148.97435877, 4097.05128171, 4130.64102537, 4136.92307672, 4139.48717928, 4133.97435870, 4134.99999973, 4143.07692287, 4179.48717935, 4149.10256390, 4141.79487159, 4122.17948691,0
4133.58974332, 4156.41025621, 4171.15384602, 4123.46153819, 4137.69230749, 4164.35897415, 4171.53846140, 4158.33333313, 4156.92307672, 4161.28205108, 4200.64102551, 4173.58974345, 4163.97435877, 4120.64102537,0
4134.23076896, 4164.99999980, 4167.69230749, 4132.94871767, 4148.71794851, 4168.33333320, 4171.15384602, 4156.79487159, 4152.56410236, 4154.99999980, 4195.64102551, 4171.92307679, 4160.64102544, 4120.12820485,0
4113.97435870, 4138.07692287, 4144.10256390, 4111.02564075, 4132.43589716, 4132.94871767, 4147.17948697, 4130.76923050, 4132.05128178, 4135.76923056, 4178.58974345, 4143.71794851, 4135.38461518, 4117.69230742,0
4120.25640998, 4114.61538434, 4138.58974339, 4087.94871761, 4105.12820485, 4134.35897408, 4139.48717928, 4125.51282024, 4131.92307665, 4131.92307665, 4179.99999986, 4140.76923056, 4133.46153819, 4125.51282024,0
4127.94871767, 4116.92307665, 4139.23076903, 4087.94871761, 4117.69230742, 4144.23076903, 4133.46153819, 4132.69230742, 4133.07692280, 4132.05128178, 4183.20512807, 4149.99999980, 4147.82051262, 4126.15384588,0
4111.02564075, 4120.64102537, 4137.82051262, 4097.82051248, 4131.53846126, 4126.41025614, 4124.99999973, 4128.07692280, 4127.17948691, 4128.07692280, 4178.33333320, 4143.97435877, 4138.07692287, 4118.20512793,0
4117.94871767, 4114.23076896, 4147.17948697, 4097.69230735, 4111.79487152, 4124.61538434, 4127.43589716, 4125.12820485, 4134.99999973, 4138.07692287, 4182.30769217, 4147.56410236, 4130.51282024, 4124.61538434,0
4137.05128185, 4123.84615357, 4166.15384595, 4105.76923050, 4109.23076896, 4143.20512800, 4141.15384595, 4139.10256390, 4150.89743569, 4158.20512800, 4201.15384609, 4171.28205115, 4163.71794851, 4125.12820485,0
4130.64102537, 4140.76923056, 4175.89743576, 4124.74358947, 4123.07692280, 4136.15384595, 4154.35897415, 4146.28205108, 4145.51282031, 4160.38461518, 4203.46153840, 4181.79487166, 4179.99999986, 4113.97435870,0
4122.56410229, 4133.33333306, 4164.99999980, 4125.25640998, 4113.58974332, 4118.58974332, 4141.28205108, 4128.97435870, 4121.79487152, 4138.84615364, 4182.69230756, 4166.79487159, 4147.82051262, 4116.66666639,0
4127.94871767, 4134.23076896, 4164.23076903, 4125.51282024, 4123.84615357, 4130.64102537, 4119.99999973, 4122.30769203, 4121.79487152, 4126.53846126, 4186.28205115, 4164.48717928, 4133.46153819, 4119.23076896,0
4131.79487152, 4160.64102544, 4187.56410243, 4144.99999980, 4158.20512800, 4149.61538441, 4130.89743562, 4143.97435877, 4146.79487159, 4146.53846133, 4217.05128199, 4188.84615371, 4166.66666646, 4112.30769203,0
4140.38461518, 4167.43589723, 4191.41025628, 4148.71794851, 4151.53846133, 4143.20512800, 4146.53846133, 4151.53846133, 4151.92307672, 4164.74358954, 4220.64102558, 4196.15384602, 4180.25641012, 4123.71794844,0
4140.25641005, 4149.23076903, 4173.84615371, 4135.76923056, 4129.35897408, 4128.71794844, 4142.43589723, 4140.25641005, 4140.38461518, 4159.10256390, 4204.61538455, 4184.48717935, 4162.69230749, 4129.10256383,0
4124.23076896, 4131.92307665, 4161.53846133, 4120.89743562, 4131.15384588, 4128.07692280, 4134.10256383, 4136.92307672, 4137.30769210, 4140.64102544, 4194.35897422, 4174.87179474, 4150.38461518, 4115.38461511,0
4129.74358947, 4130.25640998, 4160.25641005, 4111.92307665, 4120.51282024, 4133.33333306, 4141.92307672, 4141.28205108, 4141.28205108, 4137.94871774, 4188.20512807, 4168.33333320, 4147.82051262, 4117.43589716,0
4146.66666646, 4143.97435877, 4170.89743576, 4123.58974332, 4105.51282024, 4149.35897415, 4163.07692287, 4143.71794851, 4147.82051262, 4160.12820492, 4194.10256397, 4173.33333320, 4161.66666646, 4124.35897408,0
4137.94871774, 4153.71794851, 4176.53846140, 4136.02564082, 4134.10256383, 4164.61538441, 4168.71794858, 4151.92307672, 4156.53846133, 4174.23076910, 4203.71794865, 4181.41025628, 4177.30769217, 4117.30769203,0
4129.10256383, 4140.64102544, 4163.97435877, 4123.33333306, 4146.79487159, 4156.79487159, 4151.41025621, 4156.41025621, 4153.46153826, 4157.05128185, 4196.41025628, 4172.30769217, 4160.51282031, 4117.69230742,0
4134.10256383, 4123.33333306, 4148.97435877, 4106.79487152, 4109.48717921, 4136.53846133, 4133.97435870, 4142.17948697, 4135.76923056, 4130.12820485, 4180.76923063, 4152.05128185, 4132.43589716, 4121.92307665,0
4127.94871767, 4130.51282024, 4151.66666646, 4117.82051255, 4111.66666639, 4125.64102537, 4136.79487159, 4131.41025614, 4129.87179460, 4130.89743562, 4182.94871781, 4151.02564082, 4139.23076903, 4115.25640998,0
4131.66666639, 4145.64102544, 4163.97435877, 4132.43589716, 4146.41025621, 4133.20512793, 4145.38461518, 4137.43589723, 4141.53846133, 4147.69230749, 4196.02564089, 4162.17948697, 4157.82051262, 4118.71794844,0
4151.15384595, 4161.41025621, 4180.25641012, 4144.87179467, 4146.92307672, 4151.41025621, 4160.38461518, 4149.23076903, 4154.10256390, 4168.07692287, 4207.30769224, 4177.43589730, 4165.38461518, 4123.20512793,0
4143.33333313, 4166.28205108, 4183.33333320, 4152.82051262, 4134.99999973, 4150.38461518, 4166.15384595, 4151.79487159, 4150.76923056, 4169.99999986, 4203.20512814, 4187.05128192, 4171.02564089, 4111.66666639,0
4127.82051255, 4147.43589723, 4164.35897415, 4129.35897408, 4130.12820485, 4134.74358947, 4143.07692287, 4139.23076903, 4132.94871767, 4133.46153819, 4177.94871781, 4170.25641012, 4156.53846133, 4112.05128178,0
4132.30769203, 4127.82051255, 4150.76923056, 4108.46153819, 4117.56410229, 4129.10256383, 4123.33333306, 4125.25640998, 4120.51282024, 4106.02564075, 4161.66666646, 4149.35897415, 4128.07692280, 4122.69230742,0
4120.89743562, 4131.53846126, 4150.76923056, 4121.28205101, 4120.12820485, 4123.97435870, 4127.82051255, 4122.94871767, 4122.94871767, 4117.56410229, 4166.79487159, 4148.07692287, 4123.46153819, 4115.76923050,0
4116.41025614, 4134.10256383, 4148.46153826, 4122.94871767, 4123.84615357, 4119.10256383, 4133.97435870, 4129.48717921, 4125.38461511, 4120.89743562, 4166.02564082, 4148.97435877, 4131.28205101, 4115.76923050,0
4132.05128178, 4114.10256383, 4135.38461518, 4098.33333299, 4117.56410229, 4123.84615357, 4121.53846126, 4126.53846126, 4116.28205101, 4103.46153819, 4149.35897415, 4137.69230749, 4118.71794844, 4126.41025614,0
4125.12820485, 4112.05128178, 4131.15384588, 4098.33333299, 4126.28205101, 4122.69230742, 4120.51282024, 4120.38461511, 4116.41025614, 4110.76923050, 4150.89743569, 4135.64102544, 4113.20512793, 4118.97435870,0
4118.20512793, 4128.71794844, 4141.92307672, 4114.87179460, 4114.61538434, 4119.99999973, 4139.48717928, 4126.53846126, 4128.84615357, 4126.41025614, 4160.51282031, 4144.99999980, 4134.48717921, 4114.10256383,0
4134.10256383, 4133.20512793, 4150.51282031, 4117.56410229, 4108.97435870, 4137.43589723, 4145.12820492, 4136.28205108, 4136.02564082, 4129.61538434, 4163.58974339, 4149.99999980, 4147.05128185, 4121.53846126,0
4135.89743569, 4136.53846133, 4153.97435877, 4123.71794844, 4151.15384595, 4148.84615364, 4138.46153826, 4135.38461518, 4136.28205108, 4133.58974332, 4175.89743576, 4156.79487159, 4138.71794851, 4116.53846126,0
4123.33333306, 4136.15384595, 4149.35897415, 4123.84615357, 4149.48717928, 4136.66666646, 4132.17948691, 4127.56410229, 4132.82051255, 4129.99999973, 4173.97435884, 4153.20512800, 4129.61538434, 4113.71794844,0
4126.02564075, 4126.41025614, 4143.46153826, 4116.92307665, 4107.17948691, 4138.71794851, 4132.17948691, 4131.53846126, 4131.28205101, 4126.53846126, 4160.89743569, 4142.69230749, 4135.12820485, 4122.17948691,0
4126.28205101, 4128.84615357, 4146.79487159, 4124.35897408, 4128.07692280, 4140.89743569, 4142.05128185, 4136.66666646, 4132.94871767, 4131.02564075, 4161.02564082, 4145.51282031, 4139.48717928, 4116.28205101,0
4126.02564075, 4131.41025614, 4146.66666646, 4122.30769203, 4155.12820492, 4120.76923050, 4145.64102544, 4128.07692280, 4128.33333306, 4127.05128178, 4160.12820492, 4144.23076903, 4122.82051255, 4114.99999973,0
4138.07692287, 4126.66666639, 4147.94871774, 4115.89743562, 4129.99999973, 4136.92307672, 4145.38461518, 4134.48717921, 4130.76923050, 4125.25640998, 4158.58974339, 4141.66666646, 4124.10256383, 4123.97435870,0
4143.84615364, 4151.41025621, 4169.87179474, 4142.43589723, 4138.46153826, 4179.87179474, 4167.05128185, 4161.66666646, 4153.71794851, 4149.61538441, 4176.92307679, 4167.82051262, 4163.46153826, 4118.71794844,0
4132.43589716, 4164.99999980, 4173.20512807, 4155.76923056, 4168.07692287, 4163.58974339, 4170.25641012, 4159.61538441, 4160.89743569, 4165.25641005, 4180.76923063, 4176.79487166, 4169.48717935, 4113.20512793,0
4112.94871767, 4111.92307665, 4123.07692280, 4107.69230742, 4127.43589716, 4110.64102537, 4113.46153819, 4112.17948691, 4119.61538434, 4123.97435870, 4139.99999980, 4123.20512793, 4108.07692280, 4123.58974332,0
4117.56410229, 4098.71794837, 4110.76923050, 4091.53846119, 4096.02564068, 4119.87179460, 4100.51282017, 4100.89743555, 4098.84615350, 4095.64102530, 4130.25640998, 4105.64102537, 4090.38461504, 4126.41025614,0
4146.53846133, 4157.43589723, 4164.74358954, 4145.25641005, 4147.82051262, 4169.10256397, 4159.35897415, 4147.43589723, 4142.82051262, 4139.10256390, 4171.15384602, 4160.25641005, 4149.61538441, 4119.23076896,0
4157.82051262, 4171.41025628, 4183.33333320, 4164.48717928, 4170.76923063, 4164.48717928, 4175.89743576, 4164.48717928, 4167.69230749, 4167.17948697, 4184.23076910, 4179.74358961, 4173.58974345, 4124.87179460,0
4130.12820485, 4141.92307672, 4149.61538441, 4130.89743562, 4121.28205101, 4125.51282024, 4146.92307672, 4136.41025621, 4135.64102544, 4134.61538434, 4156.15384595, 4146.53846133, 4143.07692287, 4121.79487152,0
4119.10256383, 4138.07692287, 4134.99999973, 4115.76923050, 4118.07692280, 4127.43589716, 4135.89743569, 4128.20512793, 4119.23076896, 4120.89743562, 4142.82051262, 4133.20512793, 4128.71794844, 4115.89743562,0
4144.23076903, 4147.05128185, 4158.07692287, 4133.97435870, 4170.64102551, 4158.33333313, 4141.53846133, 4147.05128185, 4145.38461518, 4150.12820492, 4161.53846133, 4153.46153826, 4144.10256390, 4123.07692280,0
4146.66666646, 4149.23076903, 4174.23076910, 4145.51282031, 4169.74358961, 4149.48717928, 4142.56410236, 4145.25641005, 4149.87179467, 4151.53846133, 4173.46153833, 4167.43589723, 4153.71794851, 4121.41025614,0
4131.53846126, 4140.89743569, 4155.51282031, 4125.25640998, 4114.87179460, 4116.28205101, 4134.87179460, 4126.53846126, 4121.41025614, 4113.20512793, 4152.69230749, 4155.51282031, 4137.17948697, 4119.99999973,0
4133.46153819, 4123.97435870, 4138.71794851, 4112.17948691, 4108.84615357, 4127.43589716, 4135.76923056, 4132.94871767, 4125.12820485, 4105.38461511, 4139.99999980, 4141.79487159, 4117.05128178, 4125.76923050,0
4135.76923056, 4134.48717921, 4155.64102544, 4139.35897415, 4150.12820492, 4157.30769210, 4151.53846133, 4150.38461518, 4153.84615364, 4145.25641005, 4168.20512807, 4151.79487159, 4133.71794844, 4121.79487152,0
4134.48717921, 4154.74358954, 4163.20512800, 4152.05128185, 4141.66666646, 4152.56410236, 4149.87179467, 4138.97435877, 4144.23076903, 4155.12820492, 4179.99999986, 4156.15384595, 4155.38461518, 4121.41025614,0
4142.05128185, 4151.92307672, 4151.66666646, 4137.30769210, 4128.58974332, 4143.20512800, 4136.28205108, 4127.56410229, 4123.71794844, 4133.46153819, 4165.51282031, 4149.87179467, 4148.33333313, 4126.92307665,0
4141.41025621, 4151.92307672, 4163.20512800, 4144.48717928, 4177.69230756, 4153.84615364, 4147.82051262, 4153.33333313, 4147.69230749, 4151.53846133, 4177.56410243, 4163.07692287, 4155.51282031, 4120.76923050,0
4130.38461511, 4152.82051262, 4167.43589723, 4146.92307672, 4181.53846140, 4152.43589723, 4150.51282031, 4164.35897415, 4162.30769210, 4167.69230749, 4182.82051269, 4167.05128185, 4174.23076910, 4117.05128178,0
4133.07692280, 4138.97435877, 4141.66666646, 4124.23076896, 4117.94871767, 4132.94871767, 4128.58974332, 4135.38461518, 4136.41025621, 4135.12820485, 4158.20512800, 4144.48717928, 4153.33333313, 4128.33333306,0
4135.76923056, 4122.94871767, 4128.20512793, 4116.79487152, 4114.10256383, 4121.15384588, 4116.41025614, 4122.82051255, 4124.99999973, 4112.17948691, 4149.61538441, 4128.84615357, 4117.94871767, 4129.99999973,0
4126.92307665, 4128.58974332, 4143.84615364, 4129.48717921, 4164.87179467, 4132.43589716, 4125.64102537, 4141.66666646, 4144.35897415, 4137.94871774, 4168.20512807, 4140.76923056, 4124.48717921, 4121.92307665,0
4137.05128185, 4143.97435877, 4159.10256390, 4128.20512793, 4153.58974339, 4142.30769210, 4137.56410236, 4145.38461518, 4148.58974339, 4154.23076903, 4179.35897422, 4155.89743569, 4149.99999980, 4129.61538434,0
4140.64102544, 4146.66666646, 4152.30769210, 4124.48717921, 4118.20512793, 4132.94871767, 4140.12820492, 4133.97435870, 4131.02564075, 4132.69230742, 4165.12820492, 4148.46153826, 4148.07692287, 4128.58974332,0
4117.82051255, 4127.82051255, 4132.94871767, 4128.33333306, 4125.76923050, 4124.23076896, 4132.05128178, 4134.99999973, 4127.56410229, 4117.56410229, 4148.20512800, 4131.28205101, 4125.89743562, 4115.38461511,0
4127.43589716, 4124.48717921, 4143.71794851, 4132.82051255, 4136.92307672, 4144.87179467, 4136.53846133, 4148.46153826, 4146.41025621, 4147.94871774, 4173.33333320, 4144.99999980, 4138.46153826, 4121.15384588,0
4149.23076903, 4156.15384595, 4169.61538448, 4133.46153819, 4132.56410229, 4158.46153826, 4150.76923056, 4157.05128185, 4157.82051262, 4169.48717935, 4204.10256404, 4173.33333320, 4179.74358961, 4126.79487152,0
4129.10256383, 4149.99999980, 4145.64102544, 4116.41025614, 4124.99999973, 4121.66666639, 4130.89743562, 4138.33333313, 4136.92307672, 4122.05128178, 4167.30769210, 4151.66666646, 4158.84615364, 4118.84615357,0
4119.10256383, 4109.61538434, 4119.87179460, 4114.99999973, 4134.99999973, 4100.51282017, 4103.33333306, 4123.07692280, 4125.25640998, 4106.66666639, 4139.35897415, 4125.38461511, 4114.48717921, 4122.17948691,0
4136.02564082, 4122.56410229, 4149.35897415, 4142.30769210, 4156.79487159, 4136.02564082, 4117.94871767, 4142.17948697, 4145.64102544, 4156.41025621, 4182.56410243, 4153.46153826, 4142.17948697, 4127.69230742,0
4147.17948697, 4176.02564089, 4180.64102551, 4156.92307672, 4141.41025621, 4163.84615364, 4160.76923056, 4163.20512800, 4161.28205108, 4167.82051262, 4212.43589737, 4186.28205115, 4194.87179474, 4118.84615357,0
4143.71794851, 4157.17948697, 4160.89743569, 4137.56410236, 4114.10256383, 4141.79487159, 4159.10256390, 4148.97435877, 4146.79487159, 4134.23076896, 4187.56410243, 4164.23076903, 4172.43589730, 4122.43589716,0
4125.51282024, 4105.64102537, 4137.43589723, 4125.64102537, 4148.97435877, 4128.20512793, 4119.10256383, 4127.69230742, 4126.92307665, 4128.07692280, 4170.38461525, 4132.94871767, 4123.20512793, 4124.61538434,0
4121.66666639, 4116.02564075, 4140.38461518, 4131.66666639, 4185.89743576, 4141.79487159, 4115.51282024, 4130.64102537, 4126.41025614, 4132.30769203, 4175.89743576, 4136.66666646, 4126.92307665, 4116.92307665,0
4131.92307665, 4126.41025614, 4131.41025614, 4119.10256383, 4139.87179467, 4133.71794844, 4137.43589723, 4138.71794851, 4134.23076896, 4119.48717921, 4169.99999986, 4134.87179460, 4137.43589723, 4126.79487152,0
4135.89743569, 4109.99999973, 4123.46153819, 4108.07692280, 4115.51282024, 4129.99999973, 4141.41025621, 4139.48717928, 4141.02564082, 4133.46153819, 4167.69230749, 4127.82051255, 4134.10256383, 4130.51282024,0
4127.94871767, 4105.89743562, 4129.23076896, 4106.66666639, 4139.23076903, 4139.74358954, 4129.74358947, 4128.07692280, 4133.71794844, 4143.46153826, 4169.10256397, 4129.35897408, 4137.69230749, 4116.15384588,0
4127.69230742, 4124.23076896, 4139.10256390, 4118.97435870, 4110.38461511, 4140.76923056, 4142.30769210, 4126.66666639, 4130.51282024, 4133.71794844, 4168.46153833, 4137.43589723, 4155.38461518, 4118.33333306,0
4133.33333306, 4131.41025614, 4142.17948697, 4133.46153819, 4098.33333299, 4136.79487159, 4148.33333313, 4136.41025621, 4136.79487159, 4131.79487152, 4169.35897422, 4140.51282031, 4153.84615364, 4123.71794844,0
4109.87179460, 4103.97435870, 4121.66666639, 4115.64102537, 4135.76923056, 4123.20512793, 4118.71794844, 4130.51282024, 4128.97435870, 4121.41025614, 4154.87179467, 4118.46153819, 4118.46153819, 4113.71794844,0
4108.58974332, 4086.15384581, 4108.33333306, 4096.92307658, 4132.69230742, 4116.15384588, 4113.97435870, 4130.51282024, 4127.56410229, 4121.41025614, 4147.69230749, 4104.48717921, 4114.48717921, 4121.79487152,0
4131.79487152, 4108.46153819, 4125.25640998, 4115.51282024, 4121.92307665, 4136.15384595, 4136.92307672, 4149.48717928, 4147.30769210, 4145.12820492, 4164.61538441, 4122.56410229, 4143.97435877, 4128.20512793,0
4125.76923050, 4132.43589716, 4140.76923056, 4137.69230749, 4143.33333313, 4148.71794851, 4136.53846133, 4154.10256390, 4152.82051262, 4151.28205108, 4171.02564089, 4136.28205108, 4141.66666646, 4112.94871767,0
4132.05128178, 4128.33333306, 4141.79487159, 4136.28205108, 4138.33333313, 4136.41025621, 4133.71794844, 4148.33333313, 4142.56410236, 4139.48717928, 4160.51282031, 4131.15384588, 4125.76923050, 4114.74358947,0
4139.61538441, 4119.87179460, 4139.61538441, 4127.94871767, 4112.94871767, 4136.53846133, 4145.12820492, 4148.97435877, 4141.66666646, 4137.82051262, 4152.30769210, 4129.10256383, 4141.28205108, 4123.33333306,0
4118.71794844, 4112.69230742, 4126.66666639, 4111.53846126, 4123.58974332, 4138.20512800, 4129.23076896, 4127.05128178, 4129.48717921, 4126.28205101, 4144.87179467, 4118.84615357, 4136.28205108, 4116.66666639,0
4121.79487152, 4100.51282017, 4115.38461511, 4102.30769196, 4135.76923056, 4117.94871767, 4110.64102537, 4104.99999973, 4112.17948691, 4109.10256383, 4140.89743569, 4102.43589709, 4106.79487152, 4118.97435870,0
4128.46153819, 4101.28205094, 4119.74358947, 4114.61538434, 4117.69230742, 4115.25640998, 4127.17948691, 4121.15384588, 4120.38461511, 4115.38461511, 4142.17948697, 4109.10256383, 4115.51282024, 4121.28205101,0
4115.76923050, 4117.94871767, 4131.53846126, 4128.71794844, 4119.35897408, 4134.10256383, 4137.56410236, 4135.12820485, 4136.79487159, 4133.46153819, 4151.79487159, 4130.12820485, 4137.56410236, 4112.94871767,0
4126.66666639, 4112.94871767, 4126.92307665, 4117.05128178, 4119.87179460, 4124.99999973, 4121.28205101, 4120.89743562, 4127.56410229, 4128.84615357, 4157.43589723, 4124.23076896, 4123.84615357, 4124.10256383,0
4129.87179460, 4089.35897402, 4111.28205101, 4100.51282017, 4100.89743555, 4111.92307665, 4115.25640998, 4120.64102537, 4122.82051255, 4115.12820485, 4149.48717928, 4102.43589709, 4115.12820485, 4126.41025614,0
4122.30769203, 4107.94871767, 4115.51282024, 4108.46153819, 4116.02564075, 4114.61538434, 4121.92307665, 4119.10256383, 4117.17948691, 4104.35897408, 4145.76923056, 4109.35897408, 4119.48717921, 4116.66666639,0
4091.41025607, 4102.94871767, 4105.89743562, 4115.64102537, 4106.41025614, 4119.61538434, 4103.33333306, 4111.92307665, 4111.15384588, 4101.15384581, 4141.79487159, 4093.84615350, 4095.64102530, 4105.76923050,0
4111.79487152, 4070.64102530, 4081.92307658, 4089.87179453, 4079.87179453, 4078.71794837, 4075.76923043, 4090.64102530, 4086.53846119, 4064.61538420, 4103.97435870, 4059.48717907, 4061.15384574, 4135.76923056,0
4103.46153819, 4043.71794830, 4053.07692266, 4065.51282010, 4066.02564061, 4048.58974318, 4058.71794830, 4069.61538420, 4072.56410222, 4035.25640977, 4072.17948684, 4031.53846106, 4042.43589702, 4125.76923050,0
4043.58974318, 4085.25640991, 4087.82051248, 4109.87179460, 4107.30769203, 4109.35897408, 4092.30769196, 4096.53846119, 4109.87179460, 4099.99999966, 4122.94871767, 4079.23076889, 4097.30769196, 4067.17948677,0
4184.35897422, 4111.53846126, 4130.89743562, 4122.17948691, 4104.99999973, 4122.56410229, 4111.66666639, 4129.61538434, 4126.79487152, 4125.25640998, 4156.15384595, 4117.82051255, 4129.35897408, 4179.74358961,0
4227.69230763, 4113.97435870, 4123.46153819, 4108.58974332, 4089.35897402, 4094.74358940, 4115.12820485, 4137.05128185, 4129.48717921, 4102.05128171, 4140.12820492, 4107.82051255, 4106.66666639, 4184.99999986,0
4050.25640984, 4131.15384588, 4125.12820485, 4136.28205108, 4134.23076896, 4128.97435870, 4131.15384588, 4140.12820492, 4155.51282031, 4143.33333313, 4156.79487159, 4124.74358947, 4126.28205101, 4044.74358933,0
4144.99999980, 4073.58974325, 4098.33333299, 4089.23076889, 4112.05128178, 4099.99999966, 4076.28205094, 4107.94871767, 4114.74358947, 4105.64102537, 4118.84615357, 4093.07692273, 4097.43589709, 4159.87179467,0
4164.23076903, 4075.38461504, 4089.87179453, 4082.94871761, 4103.20512793, 4090.38461504, 4079.48717914, 4110.38461511, 4109.61538434, 4089.87179453, 4103.97435870, 4081.28205094, 4090.25640991, 4146.15384595,0
4081.53846119, 4134.87179460, 4126.02564075, 4129.99999973, 4127.17948691, 4124.99999973, 4137.05128185, 4147.94871774, 4153.71794851, 4156.15384595, 4145.64102544, 4123.97435870, 4138.84615364, 4071.66666632,0
4183.07692294, 4096.79487145, 4107.56410229, 4091.28205094, 4079.87179453, 4096.41025607, 4109.35897408, 4134.35897408, 4134.10256383, 4134.10256383, 4122.56410229, 4102.43589709, 4117.69230742, 4170.25641012,0
4142.69230749, 4078.97435863, 4091.15384581, 4084.10256376, 4090.25640991, 4111.66666639, 4097.69230735, 4123.71794844, 4126.92307665, 4106.92307665, 4111.53846126, 4088.07692273, 4102.94871767, 4132.30769203,0
4157.17948697, 4071.15384581, 4082.05128171, 4075.12820478, 4111.15384588, 4096.79487145, 4080.12820478, 4108.46153819, 4102.82051255, 4083.33333299, 4092.56410222, 4072.17948684, 4074.35897402, 4158.07692287,0
4220.76923070, 4063.20512779, 4069.61538420, 4055.38461497, 4087.82051248, 4060.89743548, 4067.30769189, 4100.76923043, 4088.07692273, 4079.74358940, 4078.71794837, 4057.56410215, 4062.17948677, 4196.28205115,0
4206.41025634, 4076.53846119, 4078.97435863, 4066.15384574, 4063.71794830, 4081.02564068, 4095.12820478, 4114.48717921, 4110.89743562, 4095.64102530, 4098.46153812, 4073.07692273, 4087.94871761, 4177.17948704,0
4267.69230777, 4029.48717900, 4051.28205087, 4032.30769183, 4027.43589695, 4058.58974318, 4066.53846113, 4085.64102530, 4079.99999966, 4038.07692266, 4060.51282010, 4036.28205080, 4042.94871754, 4232.94871788,0
4264.35897436, 3995.38461483, 4021.92307644, 4012.94871747, 4037.43589702, 4024.48717900, 4025.64102516, 4065.25640984, 4056.41025600, 4016.66666618, 4030.38461490, 4000.76923022, 4001.79487124, 4224.99999993,0
4282.17948725, 3994.48717894, 4016.53846106, 4009.87179439, 4035.64102516, 4005.89743541, 4010.12820465, 4075.25640991, 4062.05128164, 4027.30769183, 4027.69230721, 3997.05128150, 3997.94871740, 4242.17948718,0
4319.10256425, 4013.71794824, 4027.56410208, 4019.99999952, 4027.94871747, 4012.17948670, 4019.61538413, 4083.46153812, 4071.53846119, 4014.48717900, 4030.64102516, 4009.10256362, 4012.94871747, 4251.28205129,0
4298.07692315, 4029.48717900, 4044.61538420, 4038.84615343, 4048.20512779, 4025.89743541, 4032.05128157, 4083.07692273, 4077.30769196, 4012.69230721, 4039.61538420, 4021.15384567, 4022.56410208, 4221.66666660,0
4312.43589758, 4009.23076875, 4029.35897388, 4015.25640977, 4027.43589695, 4010.76923029, 4027.56410208, 4074.99999966, 4067.43589702, 4007.43589695, 4023.84615336, 3999.74358919, 4000.76923022, 4239.74358975,0
4289.35897443, 4012.30769183, 4019.10256362, 4009.87179439, 4020.25640977, 4021.15384567, 4048.71794830, 4083.33333299, 4072.56410222, 4020.12820465, 4024.87179439, 4000.89743535, 4009.99999952, 4217.43589737,0
4283.07692315, 4014.10256362, 4022.56410208, 4017.05128157, 4030.51282003, 4030.76923029, 4052.30769189, 4086.15384581, 4066.02564061, 4011.02564054, 4022.94871747, 4010.38461490, 4017.56410208, 4209.23076917,0
4275.76923084, 4012.30769183, 4021.41025593, 4023.58974311, 4033.33333285, 4030.76923029, 4041.02564061, 4080.38461504, 4059.35897395, 3989.61538406, 4016.53846106, 4005.25640977, 4005.64102516, 4199.10256397,0
4232.43589737, 4029.35897388, 4025.76923029, 4036.02564054, 4052.82051241, 4047.05128164, 4050.76923036, 4082.17948684, 4076.28205094, 4007.05128157, 4036.66666618, 4014.74358926, 4017.82051234, 4167.94871774,0
4256.41025641, 4022.43589695, 4023.58974311, 4020.12820465, 4056.15384574, 4038.07692266, 4046.79487138, 4074.99999966, 4069.99999966, 4009.87179439, 4038.07692266, 4011.92307644, 4013.97435849, 4189.48717935,0
4222.17948711, 4028.71794824, 4033.20512772, 4038.07692266, 4062.82051241, 4036.15384567, 4061.66666625, 4081.28205094, 4075.12820478, 4029.61538413, 4050.38461497, 4022.56410208, 4018.46153798, 4157.05128185,0
4158.84615364, 4054.35897395, 4049.48717907, 4073.71794837, 4075.64102530, 4068.97435856, 4080.25640991, 4093.97435863, 4096.92307658, 4059.35897395, 4077.17948684, 4045.25640984, 4047.69230728, 4117.94871767,0
4162.05128185, 4060.64102523, 4053.20512779, 4074.23076889, 4087.05128171, 4095.64102530, 4082.56410222, 4097.56410222, 4099.74358940, 4053.71794830, 4080.38461504, 4049.23076882, 4062.17948677, 4120.38461511,0
4139.48717928, 4068.71794830, 4063.71794830, 4087.05128171, 4110.12820485, 4100.12820478, 4102.05128171, 4110.76923050, 4108.97435870, 4068.58974318, 4086.15384581, 4059.87179446, 4068.33333292, 4097.30769196,0
4125.89743562, 4069.23076882, 4059.61538420, 4091.79487145, 4109.74358947, 4081.28205094, 4087.69230735, 4110.12820485, 4109.87179460, 4080.25640991, 4082.43589709, 4057.94871754, 4057.82051241, 4101.79487145,0
4111.92307665, 4075.89743555, 4053.07692266, 4081.79487145, 4102.94871767, 4081.79487145, 4062.82051241, 4101.41025607, 4102.82051255, 4068.20512779, 4079.23076889, 4053.84615343, 4057.30769189, 4094.99999966,0
4102.43589709, 4084.10256376, 4067.43589702, 4087.17948684, 4096.66666632, 4090.12820478, 4079.99999966, 4104.61538434, 4107.05128178, 4070.25640991, 4091.53846119, 4065.38461497, 4077.82051248, 4088.46153812,0
4111.41025614, 4068.58974318, 4065.64102523, 4085.89743555, 4085.12820478, 4087.17948684, 4097.82051248, 4106.92307665, 4109.35897408, 4076.41025607, 4092.43589709, 4063.58974318, 4074.74358940, 4100.64102530,0
4074.87179453, 4055.25640984, 4038.46153805, 4063.97435856, 4089.99999966, 4089.74358940, 4081.15384581, 4094.10256376, 4090.25640991, 4053.84615343, 4071.41025607, 4037.94871754, 4043.84615343, 4082.43589709,0
4059.23076882, 4015.25640977, 3991.92307637, 4020.76923029, 4064.23076882, 4043.07692266, 4032.82051234, 4057.94871754, 4045.25640984, 3997.94871740, 4024.23076875, 3982.94871740, 3988.97435842, 4096.28205094,0
4056.92307651, 4005.76923029, 3987.69230714, 4031.28205080, 4046.66666625, 4021.28205080, 4029.61538413, 4054.10256369, 4051.28205087, 4005.76923029, 4022.17948670, 3976.28205073, 3993.46153791, 4094.74358940,0
4064.23076882, 4052.94871754, 4036.41025593, 4084.23076889, 4077.69230735, 4073.84615350, 4074.74358940, 4091.41025607, 4096.02564068, 4062.69230728, 4066.15384574, 4031.53846106, 4054.74358933, 4087.17948684,0
4090.12820478, 4067.56410215, 4048.71794830, 4085.38461504, 4091.79487145, 4092.30769196, 4086.53846119, 4098.20512786, 4097.69230735, 4064.74358933, 4073.46153812, 4044.99999959, 4063.84615343, 4104.87179460,0
4069.10256369, 4072.82051248, 4047.69230728, 4083.58974325, 4087.69230735, 4086.28205094, 4094.23076889, 4096.15384581, 4101.28205094, 4063.97435856, 4079.74358940, 4043.97435856, 4059.23076882, 4083.46153812,0
4084.74358940, 4092.17948684, 4072.05128171, 4104.10256383, 4096.02564068, 4098.46153812, 4107.43589716, 4115.76923050, 4123.33333306, 4088.58974325, 4104.74358947, 4072.30769196, 4081.53846119, 4095.64102530,0
4099.99999966, 4101.53846119, 4082.56410222, 4110.51282024, 4125.25640998, 4109.10256383, 4093.97435863, 4122.05128178, 4125.25640998, 4105.89743562, 4110.64102537, 4088.07692273, 4100.12820478, 4105.51282024,0
4069.48717907, 4101.79487145, 4081.79487145, 4113.07692280, 4135.25640998, 4110.38461511, 4095.64102530, 4116.41025614, 4119.23076896, 4112.43589716, 4099.99999966, 4089.35897402, 4104.10256383, 4084.61538427,0
4087.69230735, 4101.66666632, 4085.51282017, 4111.79487152, 4100.51282017, 4111.53846126, 4121.53846126, 4122.56410229, 4121.41025614, 4107.05128178, 4090.89743555, 4088.46153812, 4099.74358940, 4100.64102530,0
4088.33333299, 4110.89743562, 4086.28205094, 4112.94871767, 4099.74358940, 4119.87179460, 4132.82051255, 4133.07692280, 4127.69230742, 4112.43589716, 4101.15384581, 4090.25640991, 4099.23076889, 4092.30769196,0
4073.71794837, 4101.79487145, 4080.51282017, 4111.28205101, 4122.56410229, 4103.84615357, 4116.28205101, 4120.25640998, 4114.99999973, 4107.94871767, 4102.94871767, 4084.35897402, 4086.66666632, 4093.46153812,0
4078.71794837, 4078.33333299, 4066.15384574, 4101.53846119, 4107.94871767, 4084.61538427, 4091.02564068, 4098.46153812, 4095.12820478, 4080.51282017, 4079.61538427, 4064.10256369, 4068.07692266, 4105.25640998,0
4066.15384574, 4076.79487145, 4053.97435856, 4099.10256376, 4086.53846119, 4104.74358947, 4081.79487145, 4097.17948684, 4096.41025607, 4071.41025607, 4072.56410222, 4054.10256369, 4066.53846113, 4090.51282017,0
4070.89743555, 4074.99999966, 4051.41025600, 4098.20512786, 4083.97435863, 4106.53846126, 4079.99999966, 4099.23076889, 4096.41025607, 4071.66666632, 4078.97435863, 4056.66666625, 4066.15384574, 4105.76923050,0
4066.02564061, 4070.38461504, 4056.79487138, 4103.58974332, 4097.05128171, 4086.02564068, 4083.20512786, 4095.89743555, 4092.69230735, 4073.20512786, 4084.61538427, 4060.89743548, 4065.64102523, 4102.17948684,0
4066.92307651, 4080.76923043, 4062.30769189, 4108.07692280, 4106.15384588, 4082.05128171, 4087.30769196, 4097.30769196, 4098.07692273, 4080.51282017, 4085.25640991, 4061.41025600, 4065.89743548, 4098.58974325,0
4086.28205094, 4092.43589709, 4068.20512779, 4109.23076896, 4104.48717921, 4090.25640991, 4096.28205094, 4110.51282024, 4111.15384588, 4093.20512786, 4086.02564068, 4071.28205094, 4077.82051248, 4107.05128178,0
4081.66666632, 4103.20512793, 4085.64102530, 4118.58974332, 4106.41025614, 4107.94871767, 4108.46153819, 4127.69230742, 4129.35897408, 4115.64102537, 4103.58974332, 4097.30769196, 4111.41025614, 4090.64102530,0
4091.79487145, 4107.30769203, 4096.15384581, 4117.05128178, 4105.51282024, 4108.58974332, 4107.94871767, 4127.30769203, 4132.05128178, 4117.30769203, 4109.74358947, 4103.71794844, 4111.66666639, 4102.30769196,0
4085.25640991, 4109.23076896, 4091.79487145, 4115.38461511, 4108.07692280, 4108.58974332, 4109.74358947, 4120.25640998, 4123.97435870, 4114.74358947, 4103.84615357, 4094.87179453, 4085.38461504, 4099.61538427,0
4078.33333299, 4118.84615357, 4096.41025607, 4121.92307665, 4088.07692273, 4124.35897408, 4125.64102537, 4128.71794844, 4126.53846126, 4118.71794844, 4111.28205101, 4099.87179453, 4108.07692280, 4094.10256376,0
4101.02564068, 4126.41025614, 4105.64102537, 4128.07692280, 4069.48717907, 4123.58974332, 4139.61538441, 4138.97435877, 4137.17948697, 4103.20512793, 4108.20512793, 4106.41025614, 4141.15384595, 4108.58974332,0
4083.33333299, 4123.97435870, 4101.41025607, 4131.53846126, 4119.10256383, 4122.82051255, 4138.71794851, 4134.10256383, 4135.64102544, 4101.79487145, 4097.82051248, 4101.41025607, 4115.12820485, 4093.20512786,0
4069.48717907, 4106.41025614, 4080.89743555, 4112.43589716, 4146.15384595, 4130.38461511, 4122.05128178, 4113.84615357, 4111.41025614, 4112.05128178, 4097.82051248, 4079.61538427, 4063.71794830, 4098.20512786,0
4075.12820478, 4101.79487145, 4069.23076882, 4104.23076896, 4123.33333306, 4134.74358947, 4108.33333306, 4107.30769203, 4108.20512793, 4093.71794837, 4097.05128171, 4064.61538420, 4083.71794837, 4106.66666639,0
4072.05128171, 4108.58974332, 4078.71794837, 4120.12820485, 4126.79487152, 4129.48717921, 4120.25640998, 4125.38461511, 4127.82051255, 4076.92307658, 4090.25640991, 4078.46153812, 4123.71794844, 4097.05128171,0
4080.25640991, 4089.87179453, 4075.51282017, 4104.35897408, 4128.20512793, 4118.20512793, 4132.17948691, 4123.97435870, 4117.94871767, 4089.48717914, 4086.41025607, 4076.28205094, 4073.33333299, 4104.87179460,0
4072.17948684, 4080.25640991, 4063.07692266, 4083.33333299, 4113.33333306, 4115.25640998, 4120.89743562, 4101.79487145, 4102.05128171, 4103.07692280, 4099.23076889, 4060.89743548, 4056.15384574, 4100.25640991,0
4074.87179453, 4101.02564068, 4070.64102530, 4097.94871761, 4104.10256383, 4117.69230742, 4105.25640998, 4102.05128171, 4112.30769203, 4085.38461504, 4107.56410229, 4074.74358940, 4113.97435870, 4102.82051255,0
4090.89743555, 4109.48717921, 4084.10256376, 4114.61538434, 4112.94871767, 4125.76923050, 4104.23076896, 4116.53846126, 4120.89743562, 4081.92307658, 4102.43589709, 4092.17948684, 4108.84615357, 4107.43589716,0
4088.84615350, 4115.89743562, 4093.84615350, 4114.74358947, 4129.23076896, 4113.84615357, 4119.74358947, 4121.15384588, 4120.89743562, 4115.64102537, 4114.10256383, 4097.56410222, 4084.74358940, 4098.71794837,0
4093.71794837, 4131.41025614, 4100.12820478, 4113.20512793, 4122.94871767, 4085.89743555, 4125.12820485, 4119.23076896, 4122.94871767, 4120.89743562, 4124.99999973, 4104.10256383, 4113.97435870, 4108.20512793,0
4085.38461504, 4112.82051255, 4096.79487145, 4115.38461511, 4104.99999973, 4098.97435863, 4107.56410229, 4116.79487152, 4120.89743562, 4095.64102530, 4107.94871767, 4103.46153819, 4110.76923050, 4105.38461511,0
4073.07692273, 4074.87179453, 4084.99999966, 4109.87179460, 4114.87179460, 4120.64102537, 4083.07692273, 4109.23076896, 4106.02564075, 4083.07692273, 4096.92307658, 4087.05128171, 4084.10256376, 4101.66666632,0
4079.23076889, 4091.79487145, 4089.87179453, 4115.12820485, 4131.28205101, 4111.02564075, 4093.20512786, 4110.76923050, 4107.69230742, 4098.20512786, 4128.20512793, 4089.87179453, 4124.61538434, 4107.69230742,0
4078.33333299, 4118.84615357, 4100.89743555, 4132.43589716, 4121.15384588, 4107.94871767, 4118.97435870, 4111.66666639, 4122.94871767, 4118.84615357, 4141.41025621, 4103.07692280, 4138.58974339, 4102.82051255,0
4074.99999966, 4094.23076889, 4086.02564068, 4127.94871767, 4116.02564075, 4103.46153819, 4106.53846126, 4096.41025607, 4110.25640998, 4106.41025614, 4102.69230742, 4084.74358940, 4089.87179453, 4106.41025614,0
4077.43589709, 4100.64102530, 4090.25640991, 4128.33333306, 4111.79487152, 4100.76923043, 4116.15384588, 4106.53846126, 4107.05128178, 4099.35897402, 4106.41025614, 4085.38461504, 4093.71794837, 4100.89743555,0
4087.56410222, 4126.66666639, 4115.12820485, 4141.15384595, 4104.74358947, 4121.53846126, 4136.02564082, 4129.35897408, 4127.43589716, 4108.46153819, 4148.46153826, 4113.33333306, 4129.74358947, 4096.53846119,0
4085.64102530, 4089.87179453, 4098.71794837, 4131.53846126, 4120.25640998, 4121.53846126, 4101.28205094, 4113.58974332, 4120.64102537, 4101.92307658, 4139.61538441, 4101.92307658, 4125.76923050, 4105.51282024,0
4068.58974318, 4088.07692273, 4079.10256376, 4125.51282024, 4128.20512793, 4097.56410222, 4085.89743555, 4098.07692273, 4103.97435870, 4100.76923043, 4117.17948691, 4081.41025607, 4113.07692280, 4102.82051255,0
4063.71794830, 4106.15384588, 4073.58974325, 4113.97435870, 4092.82051248, 4076.02564068, 4100.64102530, 4099.99999966, 4099.35897402, 4092.82051248, 4104.35897408, 4070.12820478, 4096.79487145, 4102.69230742,0
4061.28205087, 4058.20512779, 4058.46153805, 4096.28205094, 4078.58974325, 4064.87179446, 4086.53846119, 4097.82051248, 4101.02564068, 4070.76923043, 4091.02564068, 4056.41025600, 4085.51282017, 4103.20512793,0
4069.87179453, 4080.89743555, 4084.87179453, 4140.38461518, 4101.79487145, 4088.97435863, 4091.02564068, 4111.79487152, 4122.30769203, 4100.25640991, 4127.17948691, 4089.23076889, 4123.46153819, 4098.07692273,0
4096.28205094, 4158.46153826, 4133.84615357, 4189.87179474, 4086.28205094, 4124.99999973, 4131.66666639, 4137.17948697, 4144.74358954, 4153.46153826, 4174.87179474, 4139.99999980, 4165.76923056, 4102.30769196,0
4090.64102530, 4118.97435870, 4119.35897408, 4164.99999980, 4082.43589709, 4121.79487152, 4129.35897408, 4130.64102537, 4129.74358947, 4134.10256383, 4153.71794851, 4122.82051255, 4157.69230749, 4104.87179460,0
4071.02564068, 4070.64102530, 4084.48717914, 4140.25641005, 4143.97435877, 4104.99999973, 4095.51282017, 4109.99999973, 4107.05128178, 4089.87179453, 4118.46153819, 4084.87179453, 4122.56410229, 4106.15384588,0
4080.76923043, 4137.69230749, 4105.51282024, 4178.58974345, 4166.41025621, 4111.53846126, 4106.92307665, 4116.02564075, 4118.20512793, 4102.30769196, 4136.53846133, 4104.61538434, 4124.87179460, 4107.56410229,0
4091.79487145, 4163.33333313, 4127.30769203, 4206.92307686, 4117.05128178, 4126.15384588, 4133.58974332, 4127.69230742, 4131.92307665, 4127.30769203, 4154.35897415, 4124.35897408, 4149.99999980, 4105.51282024,0
4083.84615350, 4119.10256383, 4110.76923050, 4186.28205115, 4103.46153819, 4128.20512793, 4129.74358947, 4123.33333306, 4125.38461511, 4119.48717921, 4142.05128185, 4105.38461511, 4145.76923056, 4105.38461511,0
4070.51282017, 4128.58974332, 4104.87179460, 4176.41025628, 4125.38461511, 4116.66666639, 4123.20512793, 4117.69230742, 4122.94871767, 4116.53846126, 4137.17948697, 4101.28205094, 4145.76923056, 4101.28205094,0
4071.53846119, 4133.33333306, 4107.94871767, 4185.76923063, 4117.30769203, 4101.92307658, 4120.51282024, 4113.97435870, 4121.53846126, 4117.17948691, 4128.84615357, 4105.38461511, 4153.58974339, 4098.46153812,0
4075.38461504, 4108.07692280, 4101.66666632, 4186.92307679, 4117.69230742, 4103.58974332, 4111.92307665, 4111.02564075, 4115.38461511, 4105.38461511, 4126.92307665, 4097.05128171, 4140.64102544, 4099.74358940,0
4073.20512786, 4120.51282024, 4107.69230742, 4184.23076910, 4123.58974332, 4120.38461511, 4121.41025614, 4118.20512793, 4124.23076896, 4115.12820485, 4154.87179467, 4105.76923050, 4141.66666646, 4102.82051255,0
4086.53846119, 4150.64102544, 4122.56410229, 4196.02564089, 4098.58974325, 4126.92307665, 4136.53846133, 4128.07692280, 4136.15384595, 4131.53846126, 4153.97435877, 4119.87179460, 4162.05128185, 4110.76923050,0
4086.02564068, 4138.20512800, 4110.64102537, 4200.89743576, 4101.28205094, 4109.23076896, 4119.35897408, 4117.94871767, 4123.46153819, 4114.87179460, 4109.87179460, 4102.69230742, 4142.43589723, 4111.28205101,0
4071.28205094, 4112.30769203, 4092.94871761, 4188.33333320, 4141.66666646, 4091.66666632, 4094.35897402, 4105.76923050, 4107.43589716, 4091.53846119, 4102.43589709, 4089.61538427, 4117.82051255, 4105.64102537,0
4093.84615350, 4153.07692287, 4123.97435870, 4202.94871788, 4121.28205101, 4123.84615357, 4127.05128178, 4130.51282024, 4129.48717921, 4114.35897408, 4148.33333313, 4125.38461511, 4154.87179467, 4109.87179460,0
4107.82051255, 4185.89743576, 4151.28205108, 4221.15384609, 4091.66666632, 4161.79487159, 4168.07692287, 4152.82051262, 4154.61538441, 4148.84615364, 4175.12820499, 4151.92307672, 4183.97435884, 4115.12820485,0
4083.58974325, 4148.58974339, 4133.07692280, 4217.94871788, 4142.17948697, 4149.35897415, 4144.48717928, 4132.17948691, 4139.10256390, 4135.25640998, 4164.35897415, 4134.74358947, 4163.97435877, 4111.15384588,0
4082.56410222, 4141.02564082, 4137.05128185, 4240.25641026, 4180.25641012, 4127.30769203, 4119.23076896, 4120.64102537, 4125.51282024, 4117.69230742, 4168.07692287, 4138.71794851, 4170.25641012, 4109.23076896,0
4106.15384588, 4185.38461525, 4173.33333320, 4278.46153853, 4148.84615364, 4118.58974332, 4137.30769210, 4135.38461518, 4139.10256390, 4141.28205108, 4204.74358968, 4171.28205115, 4194.23076910, 4115.12820485,0
4100.12820478, 4187.56410243, 4173.58974345, 4281.41025648, 4125.25640998, 4119.35897408, 4137.94871774, 4129.74358947, 4139.23076903, 4155.12820492, 4223.33333327, 4171.79487166, 4185.76923063, 4117.17948691,0
4081.53846119, 4166.15384595, 4154.10256390, 4269.74358982, 4130.76923050, 4131.15384588, 4116.53846126, 4114.48717921, 4123.71794844, 4122.69230742, 4196.28205115, 4154.48717928, 4179.48717935, 4113.58974332,0
4088.71794837, 4168.58974345, 4165.64102544, 4283.07692315, 4121.15384588, 4126.41025614, 4118.07692280, 4116.15384588, 4123.20512793, 4108.58974332, 4187.30769217, 4164.23076903, 4178.33333320, 4112.30769203,0
4093.20512786, 4175.89743576, 4186.02564089, 4308.97435912, 4116.79487152, 4109.23076896, 4118.97435870, 4113.46153819, 4124.10256383, 4127.43589716, 4224.87179481, 4186.66666653, 4156.41025621, 4111.53846126,0
4098.20512786, 4202.05128199, 4211.92307686, 4340.89743611, 4140.76923056, 4117.94871767, 4110.64102537, 4114.35897408, 4120.76923050, 4129.23076896, 4264.35897436, 4217.05128199, 4172.05128192, 4113.20512793,0
4117.82051255, 4235.38461539, 4263.46153847, 4389.48717977, 4152.05128185, 4128.33333306, 4133.33333306, 4135.12820485, 4136.02564082, 4126.79487152, 4306.79487194, 4274.61538469, 4242.69230770, 4114.61538434,0
4121.41025614, 4231.02564096, 4300.89743604, 4422.43589779, 4146.28205108, 4128.46153819, 4146.02564082, 4133.07692280, 4141.15384595, 4129.61538434, 4349.23076944, 4315.51282066, 4247.94871795, 4111.28205101,0
4119.99999973, 4228.71794865, 4308.33333348, 4431.28205170, 4151.15384595, 4146.41025621, 4122.56410229, 4110.89743562, 4122.82051255, 4127.30769203, 4368.33333362, 4319.10256425, 4210.38461532, 4112.56410229,0
4134.35897408, 4267.94871802, 4322.43589758, 4440.76923119, 4134.99999973, 4160.89743569, 4135.51282031, 4124.87179460, 4126.92307665, 4140.12820492, 4373.58974387, 4329.74358989, 4245.12820513, 4116.02564075,0
4132.56410229, 4270.38461546, 4319.74358989, 4426.53846189, 4112.30769203, 4145.25641005, 4163.97435877, 4142.05128185, 4144.99999980, 4153.58974339, 4368.33333362, 4334.74358996, 4279.10256418, 4115.89743562,0
4112.17948691, 4225.64102558, 4283.33333341, 4389.23076951, 4152.94871774, 4133.71794844, 4138.33333313, 4126.41025614, 4135.89743569, 4136.41025621, 4348.07692329, 4305.00000014, 4248.33333334, 4115.89743562,0
4108.46153819, 4219.35897429, 4262.56410257, 4374.35897464, 4186.02564089, 4136.15384595, 4120.64102537, 4123.07692280, 4131.79487152, 4136.41025621, 4335.00000021, 4279.35897443, 4227.43589737, 4113.97435870,0
4107.56410229, 4219.23076917, 4250.64102564, 4360.51282073, 4149.10256390, 4130.25640998, 4133.97435870, 4135.64102544, 4146.15384595, 4157.17948697, 4320.76923091, 4263.07692308, 4226.53846147, 4112.94871767,0
4096.15384581, 4183.33333320, 4215.12820506, 4318.33333348, 4135.76923056, 4121.92307665, 4116.41025614, 4125.25640998, 4136.02564082, 4143.97435877, 4275.38461546, 4222.82051275, 4187.30769217, 4116.02564075,0
4097.56410222, 4178.84615371, 4192.43589730, 4301.53846168, 4144.87179467, 4118.46153819, 4113.84615357, 4114.61538434, 4120.64102537, 4127.43589716, 4238.07692308, 4195.76923063, 4177.30769217, 4114.99999973,0
4104.87179460, 4193.33333320, 4190.51282038, 4297.82051289, 4115.12820485, 4120.51282024, 4145.89743569, 4124.48717921, 4129.48717921, 4131.92307665, 4229.35897429, 4198.33333320, 4212.69230763, 4115.12820485,0
4091.79487145, 4152.43589723, 4157.30769210, 4250.76923077, 4116.15384588, 4119.23076896, 4122.69230742, 4116.66666639, 4122.69230742, 4113.84615357, 4199.61538448, 4166.28205108, 4172.43589730, 4118.33333306,0
4075.89743555, 4109.61538434, 4113.07692280, 4209.23076917, 4136.92307672, 4109.61538434, 4082.05128171, 4097.05128171, 4097.56410222, 4080.12820478, 4146.79487159, 4110.51282024, 4092.69230735, 4118.07692280,0
4076.79487145, 4110.64102537, 4104.99999973, 4203.07692301, 4110.76923050, 4102.56410229, 4100.25640991, 4100.12820478, 4093.07692273, 4070.38461504, 4126.92307665, 4097.82051248, 4086.15384581, 4117.43589716,0
4084.23076889, 4114.74358947, 4113.97435870, 4198.84615371, 4088.58974325, 4106.53846126, 4124.87179460, 4113.97435870, 4106.53846126, 4072.94871761, 4141.02564082, 4114.48717921, 4119.99999973, 4119.10256383,0
4083.33333299, 4104.35897408, 4105.25640998, 4179.35897422, 4085.76923043, 4102.69230742, 4112.69230742, 4113.46153819, 4113.97435870, 4078.20512786, 4135.76923056, 4107.17948691, 4115.12820485, 4119.87179460,0
4080.25640991, 4092.43589709, 4092.56410222, 4170.38461525, 4078.58974325, 4087.69230735, 4093.97435863, 4107.05128178, 4114.48717921, 4096.53846119, 4127.30769203, 4092.30769196, 4107.94871767, 4120.38461511,0
4094.23076889, 4108.97435870, 4111.41025614, 4190.64102551, 4093.33333299, 4101.15384581, 4100.12820478, 4116.53846126, 4126.28205101, 4128.07692280, 4152.56410236, 4112.05128178, 4143.46153826, 4121.92307665,0
4116.02564075, 4153.46153826, 4148.20512800, 4223.46153840, 4126.66666639, 4131.66666639, 4128.84615357, 4133.97435870, 4150.12820492, 4165.38461518, 4192.56410243, 4154.23076903, 4187.17948704, 4122.05128178,0
4120.89743562, 4183.84615371, 4169.87179474, 4248.33333334, 4144.35897415, 4147.69230749, 4148.84615364, 4143.84615364, 4163.84615364, 4186.02564089, 4213.33333327, 4178.97435884, 4209.99999993, 4121.28205101,0
4114.23076896, 4179.10256397, 4165.89743569, 4243.46153847, 4138.84615364, 4141.53846133, 4138.07692287, 4139.48717928, 4152.30769210, 4173.46153833, 4200.51282038, 4168.97435884, 4204.48717942, 4120.64102537,0
4119.10256383, 4170.38461525, 4159.23076903, 4227.43589737, 4131.28205101, 4131.41025614, 4128.46153819, 4132.82051255, 4139.23076903, 4154.35897415, 4183.46153833, 4159.74358954, 4194.48717935, 4121.41025614,0
4127.05128178, 4185.51282038, 4171.28205115, 4237.94871795, 4142.30769210, 4143.97435877, 4147.56410236, 4139.35897415, 4144.99999980, 4160.25641005, 4196.92307679, 4178.20512807, 4202.69230763, 4120.76923050,0
4128.46153819, 4198.07692294, 4179.48717935, 4247.94871795, 4149.74358954, 4156.92307672, 4162.94871774, 4144.61538441, 4147.69230749, 4162.94871774, 4205.64102558, 4187.17948704, 4202.82051275, 4119.48717921,0
4129.99999973, 4187.30769217, 4166.79487159, 4229.35897429, 4135.64102544, 4146.41025621, 4155.38461518, 4140.12820492, 4138.97435877, 4140.51282031, 4176.79487166, 4167.43589723, 4177.82051269, 4121.28205101,0
4124.23076896, 4177.94871781, 4151.66666646, 4216.79487173, 4129.87179460, 4140.25641005, 4152.56410236, 4143.71794851, 4137.43589723, 4127.30769203, 4153.07692287, 4151.92307672, 4156.79487159, 4120.51282024,0
4104.48717921, 4154.61538441, 4124.87179460, 4196.66666653, 4121.79487152, 4132.43589716, 4143.46153826, 4137.56410236, 4128.71794844, 4115.38461511, 4130.76923050, 4123.71794844, 4132.69230742, 4120.51282024,0
4089.74358940, 4120.51282024, 4092.43589709, 4157.94871774, 4102.82051255, 4111.79487152, 4121.15384588, 4117.56410229, 4112.30769203, 4092.05128171, 4100.89743555, 4086.79487145, 4104.10256383, 4121.53846126,0
4101.02564068, 4130.76923050, 4101.28205094, 4163.46153826, 4113.46153819, 4120.51282024, 4127.82051255, 4123.97435870, 4121.79487152, 4104.23076896, 4114.35897408, 4100.12820478, 4114.87179460, 4121.02564075,0
4111.53846126, 4150.51282031, 4123.46153819, 4189.23076910, 4131.02564075, 4137.17948697, 4140.25641005, 4138.71794851, 4137.30769210, 4134.99999973, 4142.05128185, 4124.23076896, 4137.82051262, 4123.07692280,0
4097.05128171, 4125.51282024, 4110.89743562, 4175.12820499, 4116.66666639, 4117.17948691, 4117.17948691, 4122.30769203, 4127.56410229, 4128.58974332, 4133.20512793, 4106.02564075, 4122.17948691, 4123.71794844,0
4081.15384581, 4093.97435863, 4086.28205094, 4148.84615364, 4098.20512786, 4091.41025607, 4092.94871761, 4102.30769196, 4110.89743562, 4107.30769203, 4116.53846126, 4082.69230735, 4097.56410222, 4120.76923050,0
4084.48717914, 4090.76923043, 4074.23076889, 4134.74358947, 4093.33333299, 4080.25640991, 4091.41025607, 4098.46153812, 4099.99999966, 4102.43589709, 4107.17948691, 4074.61538427, 4090.38461504, 4120.89743562,0
4098.33333299, 4115.89743562, 4090.89743555, 4144.87179467, 4105.12820485, 4089.61538427, 4104.48717921, 4105.12820485, 4105.12820485, 4121.15384588, 4113.20512793, 4086.79487145, 4098.33333299, 4123.07692280,0
4100.25640991, 4146.41025621, 4120.89743562, 4170.12820499, 4123.84615357, 4110.51282024, 4112.94871767, 4115.76923050, 4118.97435870, 4146.28205108, 4139.74358954, 4113.97435870, 4110.38461511, 4121.28205101,0
4085.12820478, 4130.51282024, 4106.15384588, 4155.76923056, 4109.87179460, 4094.48717914, 4089.35897402, 4100.89743555, 4101.15384581, 4135.25640998, 4131.66666639, 4100.38461504, 4086.41025607, 4119.35897408,0
4083.97435863, 4105.64102537, 4081.15384581, 4124.74358947, 4091.66666632, 4065.51282010, 4069.99999966, 4077.17948684, 4076.66666632, 4117.05128178, 4100.12820478, 4072.05128171, 4051.15384574, 4120.76923050,0
4102.43589709, 4125.51282024, 4107.05128178, 4134.61538434, 4111.79487152, 4083.20512786, 4091.28205094, 4091.41025607, 4094.10256376, 4146.53846133, 4118.46153819, 4098.84615350, 4066.79487138, 4119.10256383,0
4100.12820478, 4117.69230742, 4113.07692280, 4129.87179460, 4109.48717921, 4092.82051248, 4092.56410222, 4103.97435870, 4105.38461511, 4159.61538441, 4135.89743569, 4108.71794844, 4068.84615343, 4118.58974332,0
4082.82051248, 4078.97435863, 4075.64102530, 4095.25640991, 4077.30769196, 4065.12820472, 4064.61538420, 4083.20512786, 4082.82051248, 4123.97435870, 4105.51282024, 4067.05128164, 4022.82051234, 4120.38461511,0
4085.12820478, 4085.89743555, 4073.20512786, 4099.10256376, 4081.92307658, 4061.41025600, 4064.99999959, 4073.58974325, 4075.51282017, 4118.20512793, 4095.51282017, 4063.46153805, 4008.20512772, 4118.58974332,0
4091.15384581, 4090.64102530, 4079.99999966, 4103.84615357, 4088.20512786, 4065.64102523, 4069.10256369, 4075.38461504, 4078.07692273, 4129.48717921, 4102.17948684, 4077.05128171, 4012.43589695, 4119.87179460,0
4081.53846119, 4055.51282010, 4053.33333292, 4070.76923043, 4061.15384574, 4043.07692266, 4047.82051241, 4064.74358933, 4067.56410215, 4111.66666639, 4077.56410222, 4048.46153805, 3978.33333278, 4122.69230742,0
4079.48717914, 4051.66666625, 4053.33333292, 4067.43589702, 4057.56410215, 4038.84615343, 4044.10256369, 4065.38461497, 4070.25640991, 4113.84615357, 4073.07692273, 4043.97435856, 3960.89743528, 4122.05128178,0
4094.35897402, 4073.97435863, 4082.05128171, 4093.20512786, 4080.89743555, 4058.97435856, 4065.89743548, 4079.35897402, 4086.15384581, 4140.89743569, 4104.23076896, 4078.84615350, 3985.51281996, 4118.58974332,0
4099.99999966, 4067.43589702, 4085.89743555, 4088.97435863, 4081.41025607, 4062.17948677, 4072.17948684, 4085.51282017, 4087.17948684, 4145.51282031, 4114.87179460, 4089.61538427, 3990.38461483, 4119.61538434,0
4097.43589709, 4068.20512779, 4089.99999966, 4082.82051248, 4076.66666632, 4062.69230728, 4074.23076889, 4095.12820478, 4093.84615350, 4151.15384595, 4120.12820485, 4091.53846119, 3983.46153791, 4120.25640998,0
4105.76923050, 4100.64102530, 4111.66666639, 4105.12820485, 4098.71794837, 4083.97435863, 4096.66666632, 4113.20512793, 4116.02564075, 4179.23076910, 4141.92307672, 4111.66666639, 3997.56410201, 4114.99999973,0
4112.43589716, 4112.43589716, 4112.82051255, 4113.20512793, 4116.41025614, 4095.64102530, 4105.38461511, 4109.87179460, 4111.79487152, 4176.79487166, 4135.89743569, 4113.33333306, 3995.64102509, 4119.61538434,0
4106.41025614, 4104.23076896, 4111.15384588, 4111.02564075, 4118.71794844, 4096.66666632, 4103.46153819, 4097.69230735, 4097.17948684, 4162.05128185, 4125.76923050, 4110.76923050, 3982.43589688, 4122.56410229,0
4099.35897402, 4104.48717921, 4121.79487152, 4116.28205101, 4125.51282024, 4103.71794844, 4109.99999973, 4100.12820478, 4106.41025614, 4175.12820499, 4143.20512800, 4119.74358947, 3980.25640970, 4113.71794844,0
4090.76923043, 4083.58974325, 4097.94871761, 4096.28205094, 4116.79487152, 4089.61538427, 4096.02564068, 4089.23076889, 4098.58974325, 4159.10256390, 4120.64102537, 4092.43589709, 3950.76923015, 4115.51282024,0
4069.23076882, 4035.25640977, 4047.43589702, 4053.33333292, 4077.82051248, 4048.46153805, 4053.33333292, 4054.23076882, 4056.53846113, 4098.84615350, 4055.25640984, 4039.74358933, 3890.25640950, 4119.99999973,0
4053.97435856, 4006.41025593, 4027.43589695, 4026.02564054, 4046.28205087, 4020.64102516, 4024.48717900, 4031.53846106, 4031.15384567, 4069.23076882, 4037.05128164, 4020.89743541, 3860.64102481, 4118.07692280,0
4072.69230735, 4024.74358926, 4047.82051241, 4034.87179439, 4057.43589702, 4029.87179439, 4037.30769189, 4046.66666625, 4048.33333292, 4100.12820478, 4069.99999966, 4044.35897395, 3882.43589668, 4120.25640998,0
4090.51282017, 4052.56410215, 4068.97435856, 4055.38461497, 4078.71794837, 4045.51282010, 4054.35897395, 4063.58974318, 4067.82051241, 4130.51282024, 4084.23076889, 4066.41025600, 3903.97435821, 4122.30769203,0
4077.94871761, 4044.35897395, 4065.38461497, 4049.35897395, 4069.23076882, 4031.15384567, 4039.61538420, 4052.43589702, 4060.12820472, 4122.30769203, 4069.74358940, 4061.02564061, 3891.02564027, 4121.28205101,0
4070.64102530, 4028.58974311, 4061.66666625, 4040.76923036, 4058.20512779, 4015.38461490, 4023.97435849, 4045.25640984, 4054.74358933, 4114.61538434, 4069.61538420, 4055.76923036, 3878.33333257, 4120.51282024,0
4081.28205094, 4040.89743548, 4073.84615350, 4052.82051241, 4067.82051241, 4025.89743541, 4032.82051234, 4058.71794830, 4069.99999966, 4130.25640998, 4084.23076889, 4071.79487145, 3893.20512744, 4121.02564075,0
4079.61538427, 4042.05128164, 4064.74358933, 4043.71794830, 4061.02564061, 4021.28205080, 4025.25640977, 4056.28205087, 4066.41025600, 4127.05128178, 4072.30769196, 4069.35897395, 3892.05128129, 4121.53846126,0
4074.10256376, 4025.38461490, 4049.23076882, 4024.87179439, 4047.30769189, 4004.23076875, 4008.33333285, 4041.66666625, 4050.89743548, 4109.74358947, 4055.51282010, 4053.46153805, 3876.41025565, 4123.07692280,0
4088.33333299, 4045.89743548, 4075.64102530, 4046.92307651, 4067.94871754, 4025.51282003, 4032.17948670, 4052.69230728, 4064.87179446, 4127.82051255, 4080.76923043, 4078.46153812, 3900.51281975, 4125.76923050,0
4097.17948684, 4078.58974325, 4098.71794837, 4071.53846119, 4091.79487145, 4056.28205087, 4060.51282010, 4064.74358933, 4077.05128171, 4147.94871774, 4102.94871767, 4103.20512793, 3924.10256341, 4120.76923050,0
4087.94871761, 4067.56410215, 4080.12820478, 4057.94871754, 4086.53846119, 4051.28205087, 4053.46153805, 4054.74358933, 4061.02564061, 4130.64102537, 4082.43589709, 4084.99999966, 3902.30769155, 4117.94871767,0
4080.64102530, 4048.46153805, 4066.15384574, 4042.56410215, 4078.71794837, 4041.66666625, 4044.99999959, 4048.07692266, 4052.17948677, 4112.43589716, 4065.76923036, 4068.71794830, 3881.28205052, 4120.76923050,0
4076.66666632, 4049.74358933, 4068.84615343, 4039.35897395, 4076.92307658, 4044.10256369, 4051.53846113, 4052.43589702, 4056.28205087, 4112.17948691, 4064.35897395, 4065.51282010, 3880.38461462, 4119.87179460,0
4070.89743555, 4038.58974318, 4050.89743548, 4023.84615336, 4064.23076882, 4033.97435849, 4042.05128164, 4052.94871754, 4052.56410215, 4101.92307658, 4047.30769189, 4046.79487138, 3868.97435814, 4122.56410229,0
4065.89743548, 4017.43589695, 4032.17948670, 4005.12820465, 4051.53846113, 4021.15384567, 4023.84615336, 4054.35897395, 4052.69230728, 4095.38461504, 4033.97435849, 4034.23076875, 3861.28205045, 4125.38461511,0
4056.66666625, 3992.69230714, 4023.07692259, 3983.97435842, 4034.35897388, 4004.87179439, 4005.89743541, 4046.41025600, 4047.69230728, 4086.92307658, 4023.20512772, 4024.87179439, 3855.38461455, 4120.64102537,0
4064.35897395, 3994.74358919, 4032.69230721, 3987.43589688, 4040.25640984, 4008.71794824, 4009.99999952, 4039.87179446, 4045.89743548, 4082.82051248, 4027.94871747, 4026.53846106, 3858.33333250, 4120.76923050,0
4105.51282024, 4074.99999966, 4102.05128171, 4061.92307651, 4114.87179460, 4081.02564068, 4077.56410222, 4081.66666632, 4090.51282017, 4145.64102544, 4097.94871761, 4096.66666632, 3925.12820444, 4123.46153819,0
4136.15384595, 4154.74358954, 4172.05128192, 4137.82051262, 4184.10256397, 4155.12820492, 4144.99999980, 4129.23076896, 4139.35897415, 4223.58974352, 4169.23076910, 4175.12820499, 4001.15384560, 4121.66666639,0
4139.35897415, 4157.43589723, 4180.76923063, 4148.20512800, 4188.71794858, 4163.58974339, 4151.02564082, 4130.38461511, 4138.58974339, 4229.10256404, 4176.79487166, 4184.35897422, 4015.64102516, 4125.25640998,0
4136.41025621, 4149.35897415, 4175.12820499, 4143.07692287, 4187.43589730, 4157.69230749, 4146.66666646, 4121.92307665, 4124.35897408, 4206.92307686, 4169.48717935, 4174.87179474, 4008.20512772, 4126.92307665,0
4128.07692280, 4153.07692287, 4173.46153833, 4146.41025621, 4192.43589730, 4161.66666646, 4151.15384595, 4122.43589716, 4122.82051255, 4203.07692301, 4163.58974339, 4175.25641012, 4002.56410201, 4121.28205101,0
4120.76923050, 4135.51282031, 4156.28205108, 4139.10256390, 4178.97435884, 4153.58974339, 4143.07692287, 4117.82051255, 4121.66666639, 4197.69230756, 4142.82051262, 4162.30769210, 3990.76923022, 4120.89743562,0
4121.02564075, 4119.48717921, 4143.71794851, 4128.58974332, 4171.28205115, 4139.87179467, 4134.99999973, 4117.69230742, 4119.99999973, 4186.92307679, 4129.99999973, 4148.97435877, 3980.12820458, 4124.23076896,0
4121.66666639, 4129.48717921, 4153.07692287, 4131.92307665, 4178.58974345, 4143.71794851, 4142.30769210, 4129.74358947, 4127.56410229, 4188.97435884, 4138.97435877, 4154.23076903, 3983.07692252, 4122.30769203,0
4122.17948691, 4139.35897415, 4159.87179467, 4142.17948697, 4178.33333320, 4156.79487159, 4150.12820492, 4135.25640998, 4137.43589723, 4199.10256397, 4146.92307672, 4161.66666646, 3990.51281996, 4121.28205101,0
4117.05128178, 4114.10256383, 4141.92307672, 4125.64102537, 4162.30769210, 4145.51282031, 4134.87179460, 4124.61538434, 4129.10256383, 4185.89743576, 4131.15384588, 4146.02564082, 3977.43589688, 4121.92307665,0
4107.17948691, 4084.10256376, 4125.12820485, 4099.74358940, 4151.02564082, 4125.25640998, 4118.58974332, 4119.10256383, 4120.12820485, 4160.89743569, 4111.41025614, 4129.61538434, 3961.79487117, 4122.17948691,0
4116.28205101, 4105.76923050, 4141.92307672, 4114.48717921, 4164.10256390, 4137.43589723, 4132.43589716, 4129.10256383, 4131.41025614, 4168.46153833, 4127.05128178, 4146.66666646, 3982.56410201, 4124.61538434,0
4132.17948691, 4140.38461518, 4161.53846133, 4135.51282031, 4178.58974345, 4158.58974339, 4153.46153826, 4134.48717921, 4139.74358954, 4186.41025628, 4147.82051262, 4166.28205108, 4004.35897388, 4123.84615357,0
4123.46153819, 4134.99999973, 4153.20512800, 4125.51282024, 4182.17948704, 4163.71794851, 4156.28205108, 4132.43589716, 4137.05128185, 4178.58974345, 4137.69230749, 4158.84615364, 3992.05128150, 4119.61538434,0
4117.43589716, 4128.07692280, 4149.48717928, 4124.10256383, 4186.28205115, 4165.25641005, 4154.61538441, 4133.46153819, 4138.07692287, 4169.74358961, 4129.23076896, 4154.10256390, 3992.30769176, 4119.74358947,0
4131.92307665, 4144.48717928, 4170.25641012, 4146.79487159, 4188.84615371, 4169.74358961, 4160.25641005, 4135.64102544, 4144.10256390, 4186.53846140, 4148.58974339, 4172.43589730, 4017.43589695, 4121.79487152,0
4134.23076896, 4151.92307672, 4182.17948704, 4154.61538441, 4190.51282038, 4176.53846140, 4166.02564082, 4140.51282031, 4149.48717928, 4203.58974352, 4167.05128185, 4186.28205115, 4031.28205080, 4119.35897408,0
4125.38461511, 4136.02564082, 4164.99999980, 4136.53846133, 4194.23076910, 4171.28205115, 4161.02564082, 4143.46153826, 4147.94871774, 4192.69230756, 4149.99999980, 4172.30769217, 4018.58974311, 4119.10256383,0
4124.35897408, 4118.33333306, 4148.07692287, 4125.25640998, 4186.28205115, 4157.05128185, 4149.87179467, 4141.02564082, 4142.30769210, 4176.02564089, 4123.97435870, 4153.20512800, 4007.56410208, 4121.66666639,0
4127.05128178, 4134.99999973, 4155.76923056, 4133.58974332, 4177.17948704, 4164.48717928, 4152.69230749, 4143.71794851, 4142.17948697, 4181.41025628, 4134.87179460, 4161.02564082, 4022.94871747, 4120.12820485,0
4128.58974332, 4156.15384595, 4158.46153826, 4137.30769210, 4189.48717935, 4170.64102551, 4152.94871774, 4141.53846133, 4138.84615364, 4180.89743576, 4147.82051262, 4168.20512807, 4026.79487131, 4121.53846126,0
4126.41025614, 4138.84615364, 4145.76923056, 4130.12820485, 4183.33333320, 4158.97435877, 4146.02564082, 4130.76923050, 4133.46153819, 4167.17948697, 4129.74358947, 4152.56410236, 4013.07692259, 4124.99999973,0
4119.74358947, 4112.56410229, 4135.51282031, 4116.53846126, 4152.30769210, 4155.12820492, 4148.97435877, 4127.82051255, 4132.05128178, 4163.33333313, 4110.25640998, 4137.94871774, 4005.64102516, 4123.20512793,0
4118.84615357, 4117.30769203, 4129.87179460, 4107.05128178, 4166.53846133, 4162.05128185, 4149.48717928, 4129.23076896, 4129.87179460, 4159.87179467, 4109.10256383, 4137.69230749, 4000.64102509, 4122.43589716,0
4128.71794844, 4138.71794851, 4137.30769210, 4119.48717921, 4191.02564089, 4165.76923056, 4153.58974339, 4132.30769203, 4137.43589723, 4164.74358954, 4118.20512793, 4147.69230749, 4002.17948663, 4124.87179460,0
4132.82051255, 4131.15384588, 4153.33333313, 4130.76923050, 4162.82051262, 4165.38461518, 4175.64102551, 4146.79487159, 4153.46153826, 4184.99999986, 4132.94871767, 4163.97435877, 4031.02564054, 4121.28205101,0
4126.66666639, 4104.61538434, 4150.89743569, 4111.28205101, 4153.20512800, 4160.25641005, 4170.38461525, 4149.23076903, 4152.17948697, 4176.79487166, 4129.61538434, 4166.28205108, 4046.02564061, 4119.74358947,0
4124.35897408, 4108.58974332, 4141.41025621, 4100.12820478, 4189.23076910, 4158.07692287, 4135.64102544, 4134.87179460, 4138.97435877, 4156.28205108, 4109.61538434, 4153.20512800, 4018.58974311, 4124.35897408,0
4132.69230742, 4140.25641005, 4157.30769210, 4119.48717921, 4182.30769217, 4170.51282038, 4152.05128185, 4144.74358954, 4147.17948697, 4175.38461525, 4124.10256383, 4163.46153826, 4022.43589695, 4121.15384588,0
4138.84615364, 4146.66666646, 4167.43589723, 4124.74358947, 4143.71794851, 4182.17948704, 4195.25641012, 4164.48717928, 4160.51282031, 4188.46153833, 4144.74358954, 4179.99999986, 4053.71794830, 4115.25640998,0
4129.10256383, 4119.74358947, 4144.74358954, 4109.35897408, 4153.07692287, 4174.10256397, 4172.56410243, 4147.56410236, 4146.28205108, 4157.56410236, 4116.15384588, 4158.20512800, 4039.10256369, 4118.33333306,0
4116.92307665, 4103.58974332, 4127.94871767, 4102.05128171, 4180.12820499, 4159.23076903, 4129.87179460, 4120.38461511, 4125.64102537, 4136.92307672, 4087.05128171, 4129.48717921, 4010.89743541, 4122.43589716,0
4123.97435870, 4118.84615357, 4133.71794844, 4110.51282024, 4181.53846140, 4160.64102544, 4139.99999980, 4122.17948691, 4128.33333306, 4152.82051262, 4095.64102530, 4133.07692280, 4014.87179439, 4124.87179460,0
4135.51282031, 4134.35897408, 4139.35897415, 4122.30769203, 4179.74358961, 4165.12820492, 4158.84615364, 4135.89743569, 4141.53846133, 4164.99999980, 4103.84615357, 4146.92307672, 4030.12820465, 4123.71794844,0
4133.07692280, 4124.61538434, 4143.07692287, 4123.97435870, 4190.25641012, 4156.41025621, 4158.33333313, 4144.99999980, 4145.64102544, 4150.64102544, 4097.17948684, 4149.99999980, 4036.92307651, 4118.07692280,0
4132.30769203, 4123.20512793, 4153.71794851, 4130.38461511, 4203.20512814, 4172.17948704, 4166.15384595, 4149.99999980, 4145.64102544, 4147.30769210, 4103.84615357, 4154.87179467, 4047.69230728, 4119.10256383,0
4140.76923056, 4144.61538441, 4162.69230749, 4144.61538441, 4191.66666653, 4203.20512814, 4175.12820499, 4148.71794851, 4149.23076903, 4173.46153833, 4123.33333306, 4164.10256390, 4067.17948677, 4119.87179460,0
4143.71794851, 4147.30769210, 4166.79487159, 4143.84615364, 4167.94871774, 4198.33333320, 4177.94871781, 4149.61538441, 4157.30769210, 4192.43589730, 4139.10256390, 4172.17948704, 4087.30769196, 4118.71794844,0
4136.79487159, 4124.87179460, 4159.61538441, 4131.28205101, 4177.69230756, 4179.35897422, 4170.89743576, 4153.07692287, 4157.82051262, 4175.89743576, 4131.02564075, 4166.92307672, 4085.64102530, 4122.43589716,0
4142.05128185, 4128.07692280, 4159.10256390, 4137.05128185, 4208.20512814, 4186.92307679, 4174.10256397, 4156.02564082, 4153.58974339, 4162.82051262, 4120.89743562, 4165.12820492, 4082.69230735, 4122.69230742,0
4155.64102544, 4150.76923056, 4178.84615371, 4156.53846133, 4214.48717942, 4197.69230756, 4200.25641012, 4163.20512800, 4162.17948697, 4173.84615371, 4138.20512800, 4182.82051269, 4108.71794844, 4118.46153819,0
4153.20512800, 4150.64102544, 4184.74358961, 4159.74358954, 4197.56410243, 4199.48717935, 4208.46153840, 4169.23076910, 4171.66666653, 4176.41025628, 4148.33333313, 4192.69230756, 4122.43589716, 4120.76923050,0
4146.53846133, 4142.30769210, 4174.99999986, 4155.64102544, 4196.15384602, 4211.02564096, 4192.05128192, 4166.15384595, 4169.87179474, 4166.79487159, 4140.89743569, 4186.28205115, 4108.84615357, 4123.97435870,0
4144.35897415, 4143.71794851, 4173.33333320, 4152.05128185, 4195.76923063, 4207.69230763, 4179.99999986, 4156.02564082, 4158.58974339, 4154.23076903, 4139.61538441, 4178.46153833, 4107.30769203, 4118.20512793,0
4139.99999980, 4146.28205108, 4169.74358961, 4144.35897415, 4173.58974345, 4185.25641012, 4174.48717935, 4150.76923056, 4148.84615364, 4139.99999980, 4133.33333306, 4166.66666646, 4106.02564075, 4116.92307665,0
4151.02564082, 4163.46153826, 4176.15384602, 4166.15384595, 4179.61538448, 4201.15384609, 4191.02564089, 4163.58974339, 4166.41025621, 4152.94871774, 4139.35897415, 4172.56410243, 4114.61538434, 4124.10256383,0
4151.02564082, 4163.46153826, 4176.15384602, 4166.15384595, 4179.61538448, 4201.15384609, 4191.02564089, 4163.58974339, 4166.41025621, 4152.94871774, 4139.35897415, 4172.56410243, 4114.61538434, 4124.10256383,0
4150.25641005, 4152.17948697, 4168.84615371, 4169.87179474, 4187.94871781, 4201.02564096, 4187.17948704, 4156.41025621, 4168.46153833, 4151.28205108, 4137.43589723, 4167.05128185, 4111.92307665, 4124.61538434,0
4094.99999966, 4052.05128164, 4080.38461504, 4073.33333299, 4113.20512793, 4102.56410229, 4090.89743555, 4093.97435863, 4101.79487145, 4062.43589702, 4057.56410215, 4077.56410222, 4028.07692259, 4121.28205101,0
4054.48717907, 3956.41025579, 3982.05128150, 3970.76923015, 3997.43589688, 4000.51281996, 3996.92307637, 4036.41025593, 4035.25640977, 3966.02564040, 3963.46153784, 3979.23076868, 3938.20512751, 4123.97435870,0
4064.23076882, 3954.61538399, 3974.23076868, 3965.76923015, 3971.53846099, 3992.43589688, 3990.12820458, 4028.84615336, 4029.87179439, 3954.35897374, 3953.84615322, 3970.51281989, 3942.30769169, 4123.46153819,0
4069.23076882, 3977.17948663, 3990.51281996, 3980.64102509, 3989.35897381, 4005.25640977, 3994.61538406, 4031.15384567, 4037.05128164, 3961.53846092, 3972.56410201, 3988.20512765, 3964.87179425, 4118.84615357,0
4062.56410215, 3954.10256348, 3970.12820451, 3953.97435835, 3956.92307630, 3981.15384560, 3982.17948663, 4020.25640977, 4023.97435849, 3935.51281982, 3957.56410194, 3970.76923015, 3937.17948649, 4123.84615357,0
4056.15384574, 3916.41025572, 3950.64102502, 3937.05128136, 3954.10256348, 3963.84615322, 3977.82051227, 4012.05128157, 4011.66666618, 3914.10256341, 3935.38461469, 3948.46153784, 3914.87179418, 4127.17948691,0
4045.38461497, 3909.10256341, 3941.53846092, 3931.53846085, 3978.33333278, 3962.69230707, 3972.56410201, 4007.05128157, 4005.89743541, 3900.12820437, 3919.99999931, 3937.56410187, 3912.94871726, 4122.17948691,0
4044.99999959, 3919.87179418, 3936.15384546, 3920.76923008, 3963.58974297, 3969.10256348, 3968.97435835, 4005.51282003, 4006.79487131, 3892.43589668, 3914.48717880, 3936.15384546, 3907.94871726, 4122.17948691,0
4061.92307651, 3937.43589674, 3961.02564040, 3940.38461476, 3961.53846092, 3986.28205073, 3984.99999945, 4016.92307644, 4019.35897388, 3920.12820444, 3937.43589674, 3960.51281989, 3937.17948649, 4126.15384588,0
4063.20512779, 3943.97435835, 3975.38461483, 3957.05128143, 3981.92307637, 3980.89743535, 3984.35897381, 4018.20512772, 4020.25640977, 3936.79487110, 3949.74358912, 3970.25640963, 3953.46153784, 4123.97435870,0
4055.89743548, 3940.51281989, 3961.28205066, 3948.58974297, 3979.61538406, 3965.64102502, 3965.12820451, 4010.64102516, 4019.35897388, 3926.15384546, 3942.69230707, 3955.64102502, 3935.89743521, 4121.92307665,0
4061.53846113, 3953.20512758, 3973.07692252, 3965.25640963, 3977.30769176, 3973.58974304, 3972.17948663, 4024.10256362, 4042.17948677, 3948.33333271, 3965.64102502, 3970.25640963, 3955.76923015, 4124.61538434,0
4065.51282010, 3974.23076868, 3995.25640970, 3993.20512765, 3987.94871740, 3986.79487124, 3993.97435842, 4043.58974318, 4058.71794830, 3983.07692252, 3994.48717894, 3997.05128150, 3993.33333278, 4124.74358947,0
4064.99999959, 3968.71794810, 3986.53846099, 3983.46153791, 3973.97435842, 3991.15384560, 3998.58974304, 4047.05128164, 4048.97435856, 3972.94871740, 3979.74358919, 3989.35897381, 3988.33333278, 4124.74358947,0
4060.12820472, 3944.35897374, 3965.89743528, 3957.43589681, 3969.74358912, 3989.10256355, 3984.87179432, 4036.41025593, 4035.89743541, 3947.94871733, 3950.12820451, 3966.15384553, 3959.35897374, 4126.02564075,0
4050.51282010, 3937.69230700, 3959.74358912, 3952.30769169, 3983.71794817, 3977.56410201, 3976.79487124, 4020.12820465, 4029.35897388, 3951.28205066, 3948.97435835, 3959.23076861, 3949.48717887, 4123.07692280,0
4048.07692266, 3948.46153784, 3964.23076861, 3962.56410194, 3983.58974304, 3977.30769176, 3980.89743535, 4013.07692259, 4024.99999952, 3957.94871733, 3954.61538399, 3960.76923015, 3960.64102502, 4121.28205101,0
4057.30769189, 3967.05128143, 3978.07692252, 3983.07692252, 3988.33333278, 3999.35897381, 3989.99999945, 4023.46153798, 4028.46153798, 3950.64102502, 3954.10256348, 3967.82051220, 3972.69230714, 4121.02564075,0
4065.51282010, 3987.17948663, 3994.99999945, 3997.43589688, 3993.97435842, 4002.94871740, 4000.64102509, 4033.97435849, 4034.61538413, 3949.23076861, 3966.15384553, 3985.12820458, 3969.87179425, 4122.43589716,0
4072.56410222, 3996.28205073, 4007.69230721, 3994.99999945, 3984.99999945, 3992.17948663, 4009.10256362, 4035.38461490, 4038.20512779, 3965.38461476, 3983.33333278, 4000.51281996, 3980.64102509, 4127.17948691,0
4073.46153812, 3992.69230714, 4014.99999952, 4000.12820458, 3994.23076868, 4006.53846106, 4007.82051234, 4037.56410215, 4044.74358933, 3980.64102509, 3990.12820458, 4010.89743541, 4007.94871747, 4126.66666639,0
4062.30769189, 3985.76923022, 4006.41025593, 4006.41025593, 4019.23076875, 4014.10256362, 3989.99999945, 4032.05128157, 4041.79487138, 3972.82051227, 3987.17948663, 4008.84615336, 4002.05128150, 4122.94871767,0
4061.92307651, 3986.79487124, 3997.69230714, 3997.05128150, 4010.12820465, 3993.84615329, 3979.48717894, 4019.74358926, 4028.84615336, 3964.61538399, 3982.69230714, 3998.58974304, 3988.07692252, 4126.66666639,0
4071.28205094, 3989.87179432, 4005.76923029, 3994.74358919, 3977.94871740, 3996.41025586, 3995.12820458, 4022.56410208, 4032.05128157, 3978.20512765, 3987.17948663, 4002.56410201, 4001.28205073, 4127.82051255,0
4068.07692266, 3987.05128150, 4010.51282003, 4002.43589688, 3987.94871740, 4013.84615336, 4008.20512772, 4035.89743541, 4048.97435856, 3989.23076868, 3995.38461483, 4012.94871747, 4011.66666618, 4122.56410229,0
4065.25640984, 3990.64102509, 4006.02564054, 4002.17948663, 4010.76923029, 4008.84615336, 4013.46153798, 4044.61538420, 4055.51282010, 3988.71794817, 3997.82051227, 4013.71794824, 4016.41025593, 4125.12820485,0
4071.53846119, 3998.20512765, 4006.66666618, 3998.71794817, 4001.28205073, 4011.15384567, 4024.74358926, 4053.20512779, 4054.10256369, 3994.48717894, 3995.51281996, 4013.71794824, 4023.84615336, 4128.07692280,0
4069.87179453, 4002.43589688, 4010.64102516, 4003.97435842, 4003.46153791, 4027.82051234, 4021.92307644, 4055.89743548, 4056.79487138, 4006.02564054, 3993.58974304, 4016.15384567, 4019.35897388, 4124.99999973,0
4068.58974318, 4014.61538413, 4015.51282003, 4014.99999952, 4032.82051234, 4033.20512772, 4012.94871747, 4048.33333292, 4056.53846113, 4002.56410201, 4001.41025586, 4019.35897388, 4021.28205080, 4127.69230742,0
4072.69230735, 4016.79487131, 4017.43589695, 4015.89743541, 4036.02564054, 4036.02564054, 4018.33333285, 4043.71794830, 4049.23076882, 3991.66666611, 4008.33333285, 4019.87179439, 4029.74358926, 4130.25640998,0
4067.05128164, 4012.05128157, 4013.97435849, 4012.94871747, 4022.05128157, 4032.82051234, 4023.20512772, 4044.61538420, 4048.33333292, 3999.87179432, 3999.35897381, 4016.02564054, 4022.43589695, 4126.15384588,0
4063.20512779, 4029.61538413, 4016.92307644, 4019.23076875, 4039.48717907, 4022.69230721, 4016.28205080, 4043.58974318, 4048.33333292, 4004.23076875, 3991.41025586, 4015.12820465, 4012.43589695, 4125.38461511,0
4077.43589709, 4056.66666625, 4027.30769183, 4028.07692259, 4044.48717907, 4029.35897388, 4015.51282003, 4043.58974318, 4043.97435856, 3990.38461483, 4000.89743535, 4023.58974311, 4023.46153798, 4127.69230742,0
4082.43589709, 4060.38461497, 4033.58974311, 4034.35897388, 4021.41025593, 4039.87179446, 4032.69230721, 4050.76923036, 4054.74358933, 3999.87179432, 4014.35897388, 4032.69230721, 4043.97435856, 4123.33333306,0
4068.71794830, 4037.05128164, 4025.38461490, 4029.74358926, 4024.99999952, 4030.51282003, 4035.76923029, 4052.69230728, 4061.79487138, 4021.41025593, 4010.64102516, 4026.02564054, 4042.30769189, 4121.79487152,0
4064.74358933, 4020.25640977, 4014.87179439, 4016.28205080, 4038.58974318, 4033.84615336, 4025.25640977, 4046.66666625, 4049.23076882, 4014.35897388, 4007.30769183, 4017.69230721, 4029.99999952, 4125.38461511,0
4071.53846119, 4032.43589695, 4021.02564054, 4015.12820465, 4032.69230721, 4052.43589702, 4034.10256362, 4047.56410215, 4049.99999959, 4009.48717900, 4017.69230721, 4025.64102516, 4036.79487131, 4125.89743562,0
4078.20512786, 4049.87179446, 4035.76923029, 4027.17948670, 4028.97435849, 4050.89743548, 4050.12820472, 4058.71794830, 4067.56410215, 4018.20512772, 4024.10256362, 4038.20512779, 4059.35897395, 4126.28205101,0
4080.51282017, 4049.35897395, 4042.82051241, 4028.46153798, 4046.53846113, 4043.33333292, 4050.76923036, 4071.28205094, 4076.79487145, 4023.20512772, 4024.74358926, 4044.61538420, 4069.35897395, 4125.76923050,0
4075.51282017, 4043.58974318, 4040.76923036, 4024.99999952, 4058.33333292, 4049.23076882, 4048.07692266, 4076.53846119, 4073.07692273, 4033.58974311, 4033.33333285, 4046.02564061, 4066.79487138, 4123.20512793,0
4076.79487145, 4048.97435856, 4045.25640984, 4036.79487131, 4043.20512779, 4055.51282010, 4054.87179446, 4073.33333299, 4068.07692266, 4040.89743548, 4044.74358933, 4051.15384574, 4074.23076889, 4122.82051255,0
4089.10256376, 4066.79487138, 4061.15384574, 4048.46153805, 4029.74358926, 4056.02564061, 4059.48717907, 4070.76923043, 4074.23076889, 4040.89743548, 4049.23076882, 4065.64102523, 4085.12820478, 4122.82051255,0
4083.71794837, 4067.56410215, 4058.07692266, 4037.82051241, 4044.35897395, 4047.56410215, 4049.87179446, 4067.82051241, 4079.10256376, 4044.74358933, 4045.38461497, 4066.92307651, 4083.33333299, 4119.74358947,0
4064.61538420, 4046.02564061, 4032.43589695, 4022.94871747, 4063.46153805, 4042.94871754, 4031.53846106, 4056.53846113, 4065.38461497, 4034.35897388, 4027.94871747, 4040.38461497, 4068.58974318, 4119.48717921,0
4066.79487138, 4043.58974318, 4029.35897388, 4027.43589695, 4062.82051241, 4063.07692266, 4042.56410215, 4055.12820472, 4061.28205087, 4021.79487131, 4020.38461490, 4029.48717900, 4058.84615343, 4122.05128178,0
4079.48717914, 4060.89743548, 4051.92307651, 4035.76923029, 4051.53846113, 4085.51282017, 4085.76923043, 4073.58974325, 4081.53846119, 4042.56410215, 4039.48717907, 4052.05128164, 4069.61538420, 4121.53846126,0
4079.74358940, 4065.89743548, 4058.20512779, 4033.20512772, 4057.56410215, 4087.05128171, 4096.92307658, 4084.35897402, 4090.12820478, 4065.38461497, 4052.82051241, 4061.92307651, 4094.99999966, 4120.51282024,0
4076.66666632, 4063.33333292, 4048.58974318, 4034.99999952, 4071.79487145, 4083.84615350, 4070.89743555, 4076.41025607, 4082.82051248, 4056.53846113, 4048.07692266, 4048.71794830, 4100.51282017, 4122.17948691,0
4075.76923043, 4065.76923036, 4048.71794830, 4041.41025600, 4065.51282010, 4076.66666632, 4066.79487138, 4071.41025607, 4081.79487145, 4050.38461497, 4049.10256369, 4045.89743548, 4085.76923043, 4122.30769203,0
4077.17948684, 4069.23076882, 4058.20512779, 4038.71794830, 4058.46153805, 4063.84615343, 4076.02564068, 4078.46153812, 4082.56410222, 4059.74358933, 4059.74358933, 4060.12820472, 4087.69230735, 4123.33333306,0
4085.89743555, 4080.12820478, 4068.58974318, 4045.89743548, 4062.82051241, 4068.97435856, 4069.87179453, 4084.74358940, 4083.20512786, 4061.66666625, 4065.12820472, 4073.07692273, 4103.71794844, 4125.89743562,0
4087.17948684, 4093.20512786, 4076.41025607, 4067.56410215, 4064.35897395, 4077.17948684, 4071.28205094, 4086.02564068, 4091.28205094, 4065.12820472, 4070.51282017, 4081.92307658, 4116.15384588, 4120.76923050,0
4082.94871761, 4094.61538427, 4076.15384581, 4067.56410215, 4071.41025607, 4066.28205087, 4069.61538420, 4081.92307658, 4092.69230735, 4070.76923043, 4070.38461504, 4082.82051248, 4117.17948691, 4116.02564075,0
4084.87179453, 4089.35897402, 4068.07692266, 4050.38461497, 4087.82051248, 4057.43589702, 4043.33333292, 4075.64102530, 4082.56410222, 4060.38461497, 4059.23076882, 4074.99999966, 4109.23076896, 4119.35897408,0
4086.53846119, 4091.79487145, 4069.35897395, 4051.66666625, 4080.12820478, 4066.15384574, 4044.23076882, 4080.76923043, 4083.71794837, 4054.61538420, 4059.99999959, 4076.92307658, 4109.61538434, 4119.23076896,0
4089.23076889, 4102.30769196, 4081.79487145, 4061.66666625, 4061.53846113, 4073.07692273, 4079.10256376, 4091.15384581, 4096.41025607, 4066.66666625, 4074.10256376, 4087.69230735, 4118.46153819, 4116.53846126,0
4090.64102530, 4098.20512786, 4076.15384581, 4052.43589702, 4058.97435856, 4071.79487145, 4083.07692273, 4084.48717914, 4095.25640991, 4070.38461504, 4075.51282017, 4081.92307658, 4119.87179460, 4119.48717921,0
4083.46153812, 4081.15384581, 4055.89743548, 4040.25640984, 4057.05128164, 4065.12820472, 4070.76923043, 4071.41025607, 4083.84615350, 4060.25640984, 4062.17948677, 4064.48717907, 4111.15384588, 4119.61538434,0
4082.30769196, 4079.61538427, 4057.43589702, 4043.07692266, 4066.02564061, 4063.07692266, 4081.41025607, 4072.69230735, 4078.97435863, 4056.28205087, 4061.02564061, 4063.20512779, 4101.66666632, 4118.20512793,0
4091.53846119, 4087.69230735, 4074.61538427, 4047.82051241, 4083.97435863, 4085.89743555, 4085.12820478, 4078.07692273, 4079.99999966, 4060.89743548, 4072.05128171, 4073.46153812, 4106.15384588, 4123.58974332,0
4094.74358940, 4092.94871761, 4079.23076889, 4051.92307651, 4090.25640991, 4105.51282024, 4082.05128171, 4077.30769196, 4082.56410222, 4070.25640991, 4075.12820478, 4079.10256376, 4120.25640998, 4123.58974332,0
4093.84615350, 4109.48717921, 4080.76923043, 4066.92307651, 4092.94871761, 4093.84615350, 4093.58974325, 4081.92307658, 4090.38461504, 4084.10256376, 4081.28205094, 4087.05128171, 4122.69230742, 4118.20512793,0
4099.61538427, 4122.69230742, 4087.94871761, 4075.89743555, 4096.53846119, 4083.84615350, 4088.71794837, 4089.48717914, 4093.46153812, 4081.28205094, 4085.76923043, 4091.79487145, 4123.20512793, 4122.30769203,0
4105.76923050, 4120.76923050, 4095.12820478, 4072.17948684, 4081.53846119, 4095.89743555, 4082.56410222, 4098.33333299, 4094.48717914, 4068.71794830, 4080.51282017, 4091.28205094, 4132.05128178, 4124.87179460,0
4105.76923050, 4126.66666639, 4105.89743562, 4080.51282017, 4076.79487145, 4099.23076889, 4104.23076896, 4114.10256383, 4110.12820485, 4081.79487145, 4084.99999966, 4099.99999966, 4141.15384595, 4119.99999973,0
4108.46153819, 4132.82051255, 4107.30769203, 4091.92307658, 4108.71794844, 4089.61538427, 4108.20512793, 4118.07692280, 4117.82051255, 4100.89743555, 4096.66666632, 4107.05128178, 4146.53846133, 4120.51282024,0
4102.05128171, 4117.56410229, 4088.71794837, 4081.53846119, 4119.99999973, 4100.76923043, 4085.25640991, 4104.48717921, 4102.82051255, 4096.66666632, 4090.89743555, 4090.64102530, 4135.25640998, 4121.66666639,0
4087.69230735, 4103.58974332, 4077.56410222, 4067.94871754, 4091.92307658, 4112.17948691, 4090.51282017, 4099.74358940, 4095.25640991, 4091.28205094, 4083.46153812, 4074.74358940, 4119.23076896, 4120.76923050,0
4090.51282017, 4104.48717921, 4086.28205094, 4068.20512779, 4080.38461504, 4098.97435863, 4114.99999973, 4108.07692280, 4103.46153819, 4094.99999966, 4089.99999966, 4080.89743555, 4129.74358947, 4121.92307665,0
4097.94871761, 4098.71794837, 4086.92307658, 4066.15384574, 4088.71794837, 4090.25640991, 4115.12820485, 4104.99999973, 4104.10256383, 4089.61538427, 4088.33333299, 4086.79487145, 4142.69230749, 4122.30769203,0
4100.51282017, 4100.25640991, 4082.69230735, 4066.53846113, 4093.33333299, 4105.64102537, 4114.35897408, 4102.05128171, 4102.56410229, 4089.10256376, 4083.58974325, 4086.28205094, 4134.35897408, 4121.92307665,0
4111.15384588, 4130.12820485, 4098.97435863, 4079.74358940, 4089.74358940, 4122.05128178, 4137.94871774, 4114.99999973, 4114.87179460, 4111.41025614, 4100.76923043, 4100.51282017, 4142.17948697, 4122.56410229,0
4113.84615357, 4142.30769210, 4112.82051255, 4086.79487145, 4085.38461504, 4128.58974332, 4154.10256390, 4121.15384588, 4123.46153819, 4115.38461511, 4118.58974332, 4114.23076896, 4159.35897415, 4125.38461511,0
4095.38461504, 4105.89743562, 4096.66666632, 4076.92307658, 4106.79487152, 4121.92307665, 4129.99999973, 4105.25640998, 4110.25640998, 4087.56410222, 4105.25640998, 4099.35897402, 4146.66666646, 4122.94871767,0
4087.17948684, 4086.28205094, 4075.25640991, 4069.99999966, 4129.61538434, 4101.79487145, 4093.07692273, 4086.15384581, 4087.69230735, 4075.25640991, 4086.92307658, 4077.94871761, 4125.38461511, 4120.64102537,0
4103.58974332, 4119.35897408, 4086.53846119, 4083.97435863, 4103.84615357, 4101.28205094, 4093.33333299, 4092.43589709, 4091.79487145, 4096.92307658, 4099.48717914, 4087.69230735, 4133.46153819, 4120.89743562,0
4116.41025614, 4136.53846133, 4110.12820485, 4097.43589709, 4087.17948684, 4113.20512793, 4110.64102537, 4111.66666639, 4113.71794844, 4108.84615357, 4114.99999973, 4109.35897408, 4155.12820492, 4120.12820485,0
4116.02564075, 4126.28205101, 4116.66666639, 4100.76923043, 4125.64102537, 4108.07692280, 4111.15384588, 4118.71794844, 4116.92307665, 4101.66666632, 4111.53846126, 4115.38461511, 4158.07692287, 4123.07692280,0
4116.53846126, 4139.10256390, 4120.38461511, 4111.41025614, 4136.92307672, 4120.51282024, 4122.94871767, 4124.23076896, 4119.87179460, 4118.58974332, 4119.23076896, 4119.61538434, 4164.74358954, 4123.84615357,0
4112.43589716, 4147.69230749, 4116.28205101, 4108.46153819, 4108.46153819, 4146.02564082, 4139.61538441, 4123.58974332, 4124.23076896, 4130.38461511, 4126.02564075, 4115.89743562, 4170.89743576, 4120.38461511,0
4103.33333306, 4129.35897408, 4094.99999966, 4089.10256376, 4106.79487152, 4131.79487152, 4131.92307665, 4107.82051255, 4108.58974332, 4106.02564075, 4105.76923050, 4094.74358940, 4148.97435877, 4123.33333306,0
4100.38461504, 4125.25640998, 4091.53846119, 4097.30769196, 4124.74358947, 4114.74358947, 4131.92307665, 4102.17948684, 4102.17948684, 4097.94871761, 4097.82051248, 4092.05128171, 4138.33333313, 4125.25640998,0
4103.58974332, 4139.23076903, 4106.79487152, 4118.46153819, 4126.15384588, 4138.84615364, 4141.92307672, 4108.84615357, 4112.69230742, 4113.97435870, 4115.25640998, 4105.64102537, 4155.76923056, 4121.79487152,0
4105.12820485, 4133.58974332, 4098.84615350, 4103.97435870, 4112.30769203, 4148.07692287, 4125.64102537, 4102.05128171, 4107.94871767, 4107.69230742, 4114.74358947, 4096.66666632, 4151.41025621, 4124.74358947,0
4101.53846119, 4119.10256383, 4086.15384581, 4085.89743555, 4113.46153819, 4121.28205101, 4107.30769203, 4093.58974325, 4097.69230735, 4092.43589709, 4096.53846119, 4084.35897402, 4133.33333306, 4125.64102537,0
4102.05128171, 4130.38461511, 4098.46153812, 4097.56410222, 4126.79487152, 4121.79487152, 4112.43589716, 4099.48717914, 4102.30769196, 4096.41025607, 4093.46153812, 4093.58974325, 4140.38461518, 4120.64102537,0
4106.66666639, 4146.15384595, 4113.71794844, 4110.12820485, 4131.92307665, 4138.07692287, 4116.02564075, 4108.71794844, 4106.92307665, 4100.12820478, 4104.99999973, 4105.12820485, 4151.53846133, 4122.82051255,0
4113.84615357, 4146.15384595, 4121.28205101, 4116.28205101, 4122.43589716, 4125.76923050, 4114.99999973, 4114.87179460, 4113.07692280, 4109.10256383, 4117.05128178, 4114.10256383, 4163.33333313, 4125.76923050,0
4117.05128178, 4142.56410236, 4123.46153819, 4117.94871767, 4106.66666639, 4118.33333306, 4117.05128178, 4111.53846126, 4116.28205101, 4113.97435870, 4119.61538434, 4119.74358947, 4168.71794858, 4123.84615357,0
4111.53846126, 4143.84615364, 4120.25640998, 4110.64102537, 4110.89743562, 4128.46153819, 4116.53846126, 4106.79487152, 4108.20512793, 4101.15384581, 4115.12820485, 4117.05128178, 4159.61538441, 4125.89743562,0
4116.66666639, 4151.92307672, 4130.12820485, 4119.23076896, 4137.05128185, 4133.20512793, 4133.71794844, 4124.74358947, 4120.89743562, 4116.15384588, 4129.10256383, 4129.99999973, 4175.12820499, 4128.97435870,0
4120.76923050, 4154.10256390, 4140.38461518, 4132.56410229, 4145.64102544, 4135.76923056, 4151.02564082, 4138.58974339, 4136.02564082, 4140.12820492, 4146.92307672, 4144.61538441, 4192.69230756, 4126.53846126,0
4105.89743562, 4132.94871767, 4118.71794844, 4117.43589716, 4124.48717921, 4132.69230742, 4129.23076896, 4116.66666639, 4113.07692280, 4117.30769203, 4128.97435870, 4119.35897408, 4163.46153826, 4125.51282024,0
4094.61538427, 4116.02564075, 4094.10256376, 4099.74358940, 4107.43589716, 4117.82051255, 4110.64102537, 4095.64102530, 4095.12820478, 4091.92307658, 4104.74358947, 4091.53846119, 4137.56410236, 4126.92307665,0
4096.53846119, 4130.12820485, 4100.64102530, 4102.56410229, 4099.23076889, 4120.64102537, 4130.64102537, 4102.17948684, 4110.64102537, 4105.12820485, 4112.69230742, 4103.20512793, 4153.07692287, 4124.99999973,0
4092.05128171, 4116.92307665, 4092.82051248, 4085.25640991, 4093.33333299, 4125.64102537, 4122.17948691, 4095.51282017, 4103.71794844, 4095.76923043, 4106.79487152, 4099.35897402, 4143.46153826, 4123.46153819,0
4087.30769196, 4089.99999966, 4067.30769189, 4069.35897395, 4094.10256376, 4110.64102537, 4090.64102530, 4078.33333299, 4080.25640991, 4064.61538420, 4082.82051248, 4071.02564068, 4111.79487152, 4124.23076896,0
4095.64102530, 4124.48717921, 4087.43589709, 4107.82051255, 4096.15384581, 4115.76923050, 4113.07692280, 4091.66666632, 4096.41025607, 4078.84615350, 4098.58974325, 4088.07692273, 4128.33333306, 4121.66666639,0
4103.71794844, 4157.05128185, 4121.92307665, 4138.07692287, 4106.66666639, 4129.48717921, 4134.35897408, 4104.87179460, 4112.69230742, 4101.02564068, 4119.87179460, 4120.64102537, 4154.35897415, 4122.17948691,0
4109.48717921, 4149.35897415, 4123.84615357, 4130.38461511, 4134.10256383, 4123.07692280, 4111.41025614, 4100.64102530, 4107.30769203, 4102.30769196, 4116.15384588, 4124.48717921, 4155.38461518, 4126.02564075,0
4115.76923050, 4156.28205108, 4128.97435870, 4133.46153819, 4145.89743569, 4120.38461511, 4109.23076896, 4109.35897408, 4116.02564075, 4118.33333306, 4127.30769203, 4133.33333306, 4165.64102544, 4125.76923050,0
4116.92307665, 4164.23076903, 4139.35897415, 4141.28205108, 4127.43589716, 4122.05128178, 4126.02564075, 4118.33333306, 4124.87179460, 4133.46153819, 4148.58974339, 4145.51282031, 4180.76923063, 4123.58974332,0
4116.28205101, 4156.28205108, 4133.07692280, 4135.25640998, 4119.99999973, 4122.94871767, 4121.28205101, 4114.87179460, 4122.30769203, 4125.51282024, 4146.15384595, 4142.05128185, 4183.58974345, 4123.20512793,0
4115.64102537, 4152.94871774, 4125.76923050, 4128.20512793, 4121.53846126, 4131.66666639, 4116.53846126, 4117.43589716, 4121.15384588, 4117.17948691, 4132.17948691, 4135.51282031, 4170.89743576, 4123.71794844,0
4112.56410229, 4147.30769210, 4122.82051255, 4123.58974332, 4113.71794844, 4135.89743569, 4130.12820485, 4116.53846126, 4113.84615357, 4117.69230742, 4127.69230742, 4128.97435870, 4152.17948697, 4122.43589716,0
4109.87179460, 4138.46153826, 4116.15384588, 4119.23076896, 4108.97435870, 4137.56410236, 4148.97435877, 4108.07692280, 4100.51282017, 4106.02564075, 4118.33333306, 4118.58974332, 4152.05128185, 4123.33333306,0
4103.46153819, 4132.43589716, 4108.07692280, 4114.10256383, 4113.46153819, 4141.92307672, 4152.69230749, 4106.66666639, 4098.07692273, 4082.94871761, 4098.07692273, 4109.61538434, 4147.69230749, 4124.99999973,0
4097.05128171, 4121.28205101, 4096.15384581, 4102.82051255, 4118.97435870, 4135.38461518, 4140.25641005, 4105.89743562, 4100.89743555, 4075.51282017, 4090.89743555, 4099.61538427, 4121.66666639, 4125.64102537,0
4099.74358940, 4119.87179460, 4083.33333299, 4088.20512786, 4127.56410229, 4131.02564075, 4133.07692280, 4097.82051248, 4097.30769196, 4085.25640991, 4081.15384581, 4086.28205094, 4117.82051255, 4125.89743562,0
4097.82051248, 4116.53846126, 4076.53846119, 4079.35897402, 4126.66666639, 4127.69230742, 4122.30769203, 4090.25640991, 4092.43589709, 4087.17948684, 4056.28205087, 4076.53846119, 4130.25640998, 4123.71794844,0
4094.23076889, 4113.71794844, 4090.25640991, 4101.92307658, 4102.94871767, 4113.33333306, 4118.07692280, 4101.02564068, 4101.02564068, 4094.99999966, 4083.97435863, 4088.84615350, 4135.12820485, 4122.43589716,0
4111.41025614, 4137.56410236, 4107.56410229, 4112.56410229, 4101.53846119, 4125.76923050, 4139.74358954, 4124.87179460, 4128.58974332, 4129.99999973, 4124.74358947, 4113.20512793, 4166.92307672, 4122.17948691,0
4122.82051255, 4134.61538434, 4090.25640991, 4071.53846119, 4133.33333306, 4151.28205108, 4142.82051262, 4129.10256383, 4139.87179467, 4144.99999980, 4084.23076889, 4108.58974332, 4187.69230756, 4121.28205101,0
4116.53846126, 4106.41025614, 4085.12820478, 4075.76923043, 4141.66666646, 4136.53846133, 4125.64102537, 4119.23076896, 4132.30769203, 4133.84615357, 4078.33333299, 4108.97435870, 4166.41025621, 4122.69230742,0
4112.69230742, 4132.05128178, 4119.48717921, 4136.28205108, 4128.97435870, 4119.99999973, 4125.38461511, 4120.12820485, 4128.46153819, 4136.92307672, 4158.20512800, 4132.69230742, 4152.30769210, 4124.35897408,0
4107.69230742, 4166.66666646, 4124.48717921, 4135.89743569, 4121.41025614, 4132.05128178, 4131.02564075, 4122.43589716, 4122.17948691, 4135.76923056, 4165.12820492, 4125.25640998, 4151.15384595, 4119.87179460,0
4102.56410229, 4138.71794851, 4094.35897402, 4094.35897402, 4109.48717921, 4136.28205108, 4137.82051262, 4122.43589716, 4116.79487152, 4124.74358947, 4100.51282017, 4093.84615350, 4147.17948697, 4119.74358947,0
4103.46153819, 4117.56410229, 4081.15384581, 4093.46153812, 4121.28205101, 4137.69230749, 4145.38461518, 4126.02564075, 4120.12820485, 4124.74358947, 4085.89743555, 4083.46153812, 4140.38461518, 4123.97435870,0
4097.82051248, 4122.82051255, 4066.66666625, 4080.89743555, 4142.56410236, 4138.07692287, 4128.58974332, 4113.07692280, 4109.48717921, 4111.02564075, 4084.35897402, 4069.74358940, 4117.82051255, 4121.41025614,0
4085.51282017, 4100.12820478, 4037.82051241, 4040.38461497, 4112.69230742, 4106.79487152, 4105.51282024, 4091.41025607, 4085.64102530, 4076.41025607, 4052.69230728, 4038.97435856, 4089.48717914, 4120.38461511,0
4092.69230735, 4099.74358940, 4046.02564061, 4050.12820472, 4091.92307658, 4098.84615350, 4120.38461511, 4102.82051255, 4097.30769196, 4077.69230735, 4051.41025600, 4042.94871754, 4102.69230742, 4123.84615357,0
4104.74358947, 4129.35897408, 4072.69230735, 4080.12820478, 4125.51282024, 4136.02564082, 4139.48717928, 4123.71794844, 4123.33333306, 4110.64102537, 4072.69230735, 4067.69230728, 4125.25640998, 4122.43589716,0
4091.66666632, 4115.64102537, 4058.84615343, 4062.17948677, 4128.33333306, 4137.56410236, 4118.84615357, 4111.92307665, 4109.10256383, 4107.17948691, 4063.84615343, 4056.41025600, 4099.23076889, 4118.71794844,0
4079.10256376, 4076.15384581, 4027.30769183, 4024.48717900, 4087.94871761, 4114.74358947, 4095.76923043, 4091.79487145, 4083.33333299, 4074.23076889, 4037.94871754, 4024.35897388, 4073.58974325, 4119.61538434,0
4083.46153812, 4077.69230735, 4026.41025593, 4019.87179439, 4088.58974325, 4115.64102537, 4102.69230742, 4091.66666632, 4085.12820478, 4068.46153805, 4031.79487131, 4019.99999952, 4080.76923043, 4121.53846126,0
4093.84615350, 4102.30769196, 4053.58974318, 4041.66666625, 4117.30769203, 4117.56410229, 4130.89743562, 4110.89743562, 4112.69230742, 4102.94871767, 4053.46153805, 4052.05128164, 4105.64102537, 4120.89743562,0
4103.97435870, 4111.15384588, 4067.43589702, 4055.12820472, 4121.28205101, 4125.89743562, 4148.58974339, 4128.07692280, 4132.56410229, 4131.28205101, 4075.89743555, 4074.87179453, 4127.82051255, 4120.89743562,0
4107.30769203, 4114.87179460, 4064.87179446, 4055.76923036, 4104.61538434, 4152.30769210, 4160.64102544, 4135.12820485, 4134.48717921, 4134.99999973, 4079.87179453, 4072.69230735, 4138.97435877, 4119.99999973,0
4096.28205094, 4117.94871767, 4064.48717907, 4058.20512779, 4109.48717921, 4156.66666646, 4166.66666646, 4136.28205108, 4127.30769203, 4132.69230742, 4073.97435863, 4067.43589702, 4132.30769203, 4118.46153819,0
4097.17948684, 4126.02564075, 4071.41025607, 4073.58974325, 4138.97435877, 4150.76923056, 4154.23076903, 4132.82051255, 4124.48717921, 4129.48717921, 4075.89743555, 4076.53846119, 4128.71794844, 4120.38461511,0
4108.33333306, 4128.84615357, 4079.61538427, 4080.64102530, 4148.71794851, 4157.17948697, 4138.97435877, 4122.69230742, 4123.58974332, 4125.89743562, 4082.43589709, 4084.61538427, 4140.38461518, 4120.38461511,0
4104.74358947, 4118.71794844, 4081.02564068, 4069.35897395, 4145.89743569, 4139.23076903, 4127.56410229, 4109.99999973, 4113.84615357, 4121.15384588, 4083.46153812, 4078.71794837, 4135.76923056, 4117.82051255,0
4107.69230742, 4130.12820485, 4097.56410222, 4079.74358940, 4139.10256390, 4117.17948691, 4133.20512793, 4118.20512793, 4115.38461511, 4128.07692280, 4097.56410222, 4093.20512786, 4140.51282031, 4122.17948691,0
4123.46153819, 4166.79487159, 4125.12820485, 4112.30769203, 4127.82051255, 4135.12820485, 4148.33333313, 4134.35897408, 4128.46153819, 4142.56410236, 4121.79487152, 4124.99999973, 4171.02564089, 4125.12820485,0
4121.92307665, 4166.66666646, 4124.87179460, 4116.53846126, 4133.97435870, 4155.76923056, 4146.53846133, 4130.76923050, 4129.61538434, 4142.17948697, 4123.71794844, 4123.97435870, 4173.84615371, 4120.38461511,0
4103.33333306, 4119.61538434, 4092.43589709, 4085.76923043, 4149.23076903, 4139.74358954, 4129.23076896, 4113.46153819, 4114.99999973, 4126.79487152, 4099.74358940, 4090.12820478, 4135.38461518, 4117.69230742,0
4097.30769196, 4109.61538434, 4076.53846119, 4074.61538427, 4138.71794851, 4131.79487152, 4127.82051255, 4109.10256383, 4111.92307665, 4119.99999973, 4083.46153812, 4079.48717914, 4123.97435870, 4119.35897408,0
4102.94871767, 4134.10256383, 4090.51282017, 4090.89743555, 4122.94871767, 4151.66666646, 4146.41025621, 4124.87179460, 4126.66666639, 4126.28205101, 4091.28205094, 4095.89743555, 4148.71794851, 4121.15384588,0
4101.79487145, 4128.20512793, 4092.30769196, 4089.99999966, 4141.66666646, 4148.33333313, 4145.89743569, 4131.79487152, 4128.33333306, 4121.28205101, 4094.23076889, 4093.71794837, 4141.79487159, 4122.05128178,0
4101.92307658, 4125.38461511, 4091.28205094, 4085.25640991, 4144.23076903, 4133.07692280, 4145.76923056, 4131.02564075, 4125.51282024, 4121.92307665, 4095.12820478, 4090.89743555, 4130.38461511, 4119.61538434,0
4109.23076896, 4145.89743569, 4103.71794844, 4098.97435863, 4123.71794844, 4147.30769210, 4154.99999980, 4133.33333306, 4134.23076896, 4134.48717921, 4108.97435870, 4108.07692280, 4149.23076903, 4117.56410229,0
4114.74358947, 4146.28205108, 4110.12820485, 4106.28205101, 4136.41025621, 4155.38461518, 4146.79487159, 4133.71794844, 4134.35897408, 4133.84615357, 4116.02564075, 4121.02564075, 4158.84615364, 4119.23076896,0
4119.48717921, 4137.94871774, 4118.84615357, 4106.15384588, 4150.64102544, 4144.99999980, 4139.74358954, 4135.38461518, 4129.23076896, 4137.94871774, 4119.99999973, 4128.33333306, 4164.10256390, 4122.56410229,0
4118.33333306, 4149.99999980, 4130.12820485, 4116.41025614, 4137.43589723, 4146.28205108, 4144.99999980, 4135.76923056, 4134.99999973, 4156.53846133, 4132.69230742, 4133.07692280, 4176.02564089, 4124.10256383,0
4114.10256383, 4163.97435877, 4125.51282024, 4124.48717921, 4143.46153826, 4145.51282031, 4144.35897415, 4134.35897408, 4137.05128185, 4155.51282031, 4135.38461518, 4127.17948691, 4169.87179474, 4124.99999973,0
4119.74358947, 4170.64102551, 4127.82051255, 4125.51282024, 4161.15384595, 4141.15384595, 4152.56410236, 4143.58974339, 4138.84615364, 4147.30769210, 4136.28205108, 4130.89743562, 4171.66666653, 4126.79487152,0
4119.74358947, 4170.64102551, 4127.82051255, 4125.51282024, 4161.15384595, 4141.15384595, 4152.56410236, 4143.58974339, 4138.84615364, 4147.30769210, 4136.28205108, 4130.89743562, 4171.66666653, 4126.79487152,0
4121.79487152, 4169.87179474, 4142.43589723, 4131.28205101, 4148.46153826, 4155.89743569, 4168.58974345, 4152.94871774, 4148.58974339, 4163.71794851, 4145.76923056, 4142.82051262, 4186.15384602, 4123.20512793,0
