AF3,F7,F3,FC5,T7,P7,O1,O2,P8,T8,FC6,F4,F8,AF4,Label
4018.46153798, 4259.48717949, 4308.20512835, 4427.69230804, 4406.02564138, 4380.51282079, 4388.71794900, 4371.66666695, 4268.07692315, 4377.30769259, 4401.79487215, 3909.61538392, 4336.79487201, 4133.58974332,0
4023.58974311, 4241.79487180, 4312.82051296, 4420.38461574, 4405.38461574, 4379.48717977, 4383.84615413, 4385.89743618, 4278.20512828, 4397.17948746, 4413.97435933, 3917.17948649, 4352.56410278, 4132.56410229,0
4031.15384567, 4227.05128199, 4316.53846168, 4408.97435933, 4400.76923112, 4375.25641054, 4379.87179515, 4387.43589772, 4280.25641033, 4401.79487215, 4421.53846189, 3927.17948649, 4359.10256431, 4134.74358947,0
4016.79487131, 4199.35897422, 4299.87179501, 4395.00000028, 4385.64102592, 4356.53846175, 4366.41025669, 4354.87179508, 4261.79487180, 4367.30769259, 4409.48717984, 3910.76923008, 4332.69230790, 4132.56410229,0
4003.07692252, 4150.51282031, 4273.58974366, 4362.94871816, 4361.53846175, 4337.43589765, 4353.33333355, 4332.17948732, 4250.00000000, 4341.92307714, 4391.41025669, 3879.61538385, 4300.25641040, 4134.10256383,0
3996.53846099, 4109.48717921, 4252.30769231, 4333.07692329, 4342.43589765, 4319.35897450, 4339.35897457, 4330.51282066, 4251.79487180, 4333.20512842, 4370.76923105, 3853.46153763, 4273.84615392, 4135.51282031,0
3978.97435842, 4083.46153812, 4233.07692301, 4311.79487194, 4323.07692322, 4283.07692315, 4302.94871809, 4307.69230784, 4241.79487180, 4306.15384630, 4353.71794893, 3829.35897346, 4243.84615385, 4136.41025621,0
3966.28205066, 4047.43589702, 4207.94871788, 4284.23076930, 4288.07692315, 4238.20512821, 4262.56410257, 4274.35897443, 4226.28205122, 4269.74358982, 4333.71794893, 3800.25640929, 4210.76923070, 4140.25641005,0
3945.76923015, 3989.87179432, 4169.35897422, 4240.64102564, 4244.87179488, 4201.41025634, 4238.97435898, 4252.82051282, 4216.15384609, 4238.71794872, 4295.38461546, 3763.58974255, 4172.05128192, 4136.28205108,0
3913.58974290, 3913.84615316, 4116.15384588, 4166.02564082, 4183.97435884, 4143.20512800, 4193.97435884, 4210.76923070, 4193.07692294, 4183.07692294, 4239.61538462, 3705.12820395, 4113.33333306, 4135.89743569,0
3885.25640950, 3848.97435814, 4059.99999959, 4090.76923043, 4108.20512793, 4065.12820472, 4121.79487152, 4155.64102544, 4166.15384595, 4103.71794844, 4184.87179474, 3638.84615253, 4041.92307651, 4139.74358954,0
3858.58974276, 3809.35897346, 4021.28205080, 4046.66666625, 4054.99999959, 4008.84615336, 4070.12820478, 4124.48717921, 4158.84615364, 4047.82051241, 4148.33333313, 3598.46153708, 3990.76923022, 4139.23076903,0
3841.02564020, 3765.76922973, 3987.82051227, 4002.17948663, 4016.02564054, 3962.82051220, 4038.71794830, 4097.05128171, 4153.33333313, 4013.71794824, 4112.69230742, 3563.84615239, 3947.82051220, 4141.28205108,0
3826.41025551, 3720.64102453, 3951.53846092, 3949.61538399, 3972.69230714, 3918.46153777, 4006.28205080, 4062.43589702, 4139.61538441, 3974.74358919, 4069.99999966, 3522.69230617, 3899.74358898, 4141.15384595,0
3817.30769141, 3690.89743472, 3928.20512751, 3909.23076854, 3935.76923008, 3889.23076847, 3980.64102509, 4046.79487138, 4137.05128185, 3943.46153784, 4039.61538420, 3491.92307533, 3867.69230686, 4141.28205108,0
3808.97435807, 3665.64102439, 3908.46153777, 3878.71794796, 3911.28205059, 3860.76922994, 3963.33333271, 4035.38461490, 4137.05128185, 3921.02564033, 4021.41025593, 3466.02563936, 3843.97435814, 4142.17948697,0
3790.38461442, 3643.97435773, 3888.58974283, 3856.28205045, 3893.20512744, 3838.58974269, 3954.10256348, 4018.58974311, 4129.48717921, 3898.20512744, 4008.07692259, 3446.79487013, 3832.82051192, 4138.71794851,0
3783.33333236, 3617.82051150, 3866.92307609, 3826.53846064, 3862.30769148, 3823.97435807, 3945.51281989, 4004.48717900, 4120.12820485, 3871.41025558, 3982.05128150, 3424.35897263, 3818.46153756, 4142.17948697,0
3776.92307595, 3589.23076784, 3843.07692225, 3792.56410160, 3835.25640936, 3798.71794775, 3928.33333264, 3986.53846099, 4113.84615357, 3844.48717866, 3952.82051220, 3392.94871615, 3775.25640929, 4144.74358954,0
3758.20512717, 3572.82051137, 3823.97435807, 3773.46153742, 3823.58974269, 3764.10256306, 3898.97435821, 3962.94871733, 4105.76923050, 3821.02564013, 3933.20512751, 3367.05128018, 3731.28205017, 4140.25641005,0
3752.82051178, 3557.69230624, 3804.48717852, 3745.89743486, 3796.15384518, 3736.15384505, 3867.17948635, 3941.66666605, 4094.61538427, 3792.30769134, 3908.33333264, 3341.92307498, 3710.51281940, 4139.10256390,0
3742.30769127, 3534.61538309, 3776.28205031, 3708.46153728, 3758.07692204, 3721.66666556, 3851.92307609, 3923.46153777, 4087.82051248, 3762.56410153, 3876.92307616, 3310.38461337, 3687.56410139, 4138.71794851,0
3717.05128094, 3500.25640866, 3742.43589640, 3676.92307575, 3730.89743479, 3697.82051164, 3838.33333243, 3902.82051206, 4078.71794837, 3728.71794761, 3846.28205045, 3270.38461330, 3640.89743458, 4137.69230749,0
3703.46153728, 3468.07692141, 3722.43589633, 3652.17948593, 3708.46153728, 3658.46153721, 3808.71794782, 3887.94871719, 4069.61538420, 3698.58974241, 3825.12820423, 3243.07692093, 3611.66666535, 4135.89743569,0
3692.17948600, 3441.15384442, 3706.79487062, 3622.56410125, 3674.48717824, 3619.74358843, 3767.82051178, 3870.64102481, 4065.12820472, 3676.53846036, 3805.38461442, 3225.89743375, 3600.38461400, 4133.33333306,0
3677.69230651, 3412.17948538, 3681.79487062, 3580.76922938, 3635.89743458, 3588.07692169, 3736.28205017, 3842.43589661, 4057.69230728, 3645.51281927, 3779.48717852, 3192.69230547, 3572.94871649, 4132.05128178,0
3673.71794747, 3416.53845981, 3675.76922952, 3567.30769085, 3633.84615253, 3587.56410118, 3747.17948614, 3843.84615302, 4061.79487138, 3641.15384484, 3778.84615288, 3181.92307463, 3570.51281906, 4130.51282024,0
3679.61538344, 3431.92307519, 3686.28205010, 3581.28204990, 3649.48717824, 3597.30769092, 3763.33333229, 3864.10256327, 4071.02564068, 3657.82051157, 3789.48717852, 3197.94871573, 3590.25640887, 4131.92307665,0
3673.46153721, 3402.94871615, 3669.48717824, 3562.69230624, 3624.74358843, 3571.28204983, 3735.64102453, 3845.51281968, 4059.61538420, 3636.79487048, 3761.92307588, 3177.56410027, 3566.92307547, 4133.46153819,0
3671.53846029, 3397.43589563, 3668.58974234, 3559.23076778, 3615.76922945, 3566.92307547, 3731.92307582, 3833.84615295, 4057.17948677, 3633.84615253, 3753.07692204, 3169.23076694, 3558.07692162, 4130.64102537,0
3691.28205010, 3438.71794698, 3704.23076805, 3599.23076784, 3647.05128080, 3600.64102426, 3767.82051178, 3857.43589661, 4072.43589709, 3666.92307568, 3784.35897339, 3204.48717727, 3595.64102426, 4131.79487152,0
3679.61538344, 3430.12820339, 3691.79487062, 3593.07692169, 3641.66666535, 3597.69230631, 3759.48717845, 3855.51281968, 4066.79487138, 3654.74358850, 3769.48717845, 3191.53845932, 3582.43589605, 4133.33333306,0
3659.23076798, 3399.87179307, 3656.92307568, 3553.58974213, 3614.10256279, 3569.87179342, 3727.82051171, 3834.61538372, 4051.02564061, 3622.94871663, 3732.82051171, 3145.51281815, 3538.20512668, 4131.79487152,0
3676.53846036, 3422.82051109, 3673.33333209, 3561.79487034, 3624.61538330, 3577.56410118, 3733.46153735, 3831.66666577, 4054.61538420, 3632.56410125, 3742.30769127, 3153.20512592, 3551.41025495, 4132.43589716,0
3674.35897311, 3428.46153673, 3681.53846036, 3571.66666521, 3629.10256279, 3587.94871656, 3736.15384505, 3825.25640936, 4054.48717907, 3632.56410125, 3743.20512717, 3161.66666438, 3565.89743444, 4132.30769203,0
3656.79487055, 3393.07692127, 3652.05128080, 3547.05128060, 3599.99999861, 3563.07692162, 3717.17948607, 3813.58974269, 4043.46153805, 3602.56410118, 3711.28205017, 3128.46153610, 3532.05128053, 4133.46153819,0
3665.38461414, 3403.97435717, 3656.92307568, 3552.82051137, 3600.76922938, 3560.12820367, 3721.92307582, 3824.10256320, 4050.51282010, 3607.82051143, 3716.53846043, 3130.51281815, 3527.05128053, 4131.79487152,0
3672.05128080, 3427.05128032, 3673.46153721, 3562.05128060, 3612.05128073, 3574.74358829, 3727.43589633, 3824.35897346, 4053.58974318, 3620.76922945, 3728.46153735, 3150.38461303, 3539.99999848, 4131.79487152,0
3664.74358850, 3403.84615204, 3656.02563978, 3537.05128053, 3592.43589605, 3560.38461393, 3706.79487062, 3808.46153756, 4043.71794830, 3606.53846015, 3707.43589626, 3135.25640790, 3523.97435745, 4136.79487159,0
3662.69230645, 3394.48717768, 3651.92307568, 3539.10256258, 3586.02563964, 3551.02563957, 3699.10256293, 3811.79487090, 4046.66666625, 3606.41025502, 3704.23076805, 3133.84615149, 3520.25640873, 4131.28205101,0
3664.10256286, 3399.61538281, 3651.66666542, 3545.64102419, 3581.66666528, 3549.10256265, 3696.92307575, 3807.69230679, 4045.25640984, 3596.92307554, 3692.17948600, 3134.10256174, 3511.66666507, 4130.38461511,0
3647.43589619, 3377.69230582, 3626.41025509, 3514.10256258, 3552.43589598, 3528.71794719, 3674.99999875, 3790.38461442, 4036.15384567, 3574.87179342, 3661.53846029, 3109.23076680, 3482.69230610, 4137.69230749,0
3625.38461407, 3344.99999806, 3596.92307554, 3470.64102398, 3520.38461386, 3491.66666507, 3639.87179356, 3773.58974255, 4027.94871747, 3554.74358829, 3643.46153721, 3083.20512571, 3454.87179321, 4133.46153819,0
3625.38461407, 3328.07692114, 3578.07692169, 3451.53845987, 3501.92307533, 3464.61538295, 3618.84615253, 3751.66666563, 4014.74358926, 3520.12820360, 3622.69230638, 3066.66666417, 3429.10256237, 4133.33333306,0
3629.48717817, 3334.74358780, 3579.10256272, 3459.61538295, 3500.64102405, 3469.87179321, 3624.48717817, 3741.79487076, 4011.41025593, 3508.33333174, 3609.87179349, 3074.74358725, 3425.76922904, 4138.20512800,0
3621.79487048, 3332.30769037, 3577.05128060, 3448.07692141, 3492.82051123, 3461.41025475, 3612.30769099, 3733.97435787, 4009.61538413, 3508.07692148, 3596.41025502, 3076.02563853, 3417.30769057, 4141.92307672,0
3611.28204997, 3315.64102370, 3556.41025495, 3426.02563929, 3475.89743423, 3430.76922904, 3583.97435759, 3714.10256299, 3997.94871740, 3478.33333167, 3568.46153701, 3053.58974109, 3384.61538281, 4143.58974339,0
3617.17948586, 3314.87179293, 3550.89743444, 3428.07692134, 3474.48717782, 3426.92307519, 3581.66666528, 3706.41025523, 3999.23076868, 3468.84615218, 3570.51281906, 3058.33333084, 3382.43589563, 4136.66666646,0
3630.38461407, 3315.12820319, 3557.56410111, 3422.43589570, 3465.38461372, 3424.61538288, 3577.17948572, 3700.38461421, 4002.43589688, 3486.41025482, 3590.38461400, 3078.71794622, 3396.41025461, 4139.48717928,0
3622.17948586, 3304.48717748, 3546.79487034, 3404.74358794, 3446.79487013, 3402.30769050, 3560.76922931, 3683.97435780, 3991.02564047, 3477.56410090, 3576.66666521, 3075.76922827, 3383.58974179, 4142.05128185,0
3614.35897304, 3295.89743389, 3525.64102412, 3399.48717768, 3443.58974186, 3395.25640845, 3560.38461393, 3682.94871677, 3987.69230714, 3459.74358808, 3549.35897290, 3064.48717699, 3364.87179300, 4134.99999973,0
3615.64102432, 3288.20512619, 3509.48717789, 3388.07692127, 3434.74358801, 3391.66666486, 3552.17948572, 3685.12820395, 3989.10256355, 3456.41025475, 3542.30769078, 3061.41025391, 3354.99999813, 4137.30769210,0
3601.92307554, 3268.84615177, 3494.35897276, 3364.61538274, 3404.23076743, 3362.94871608, 3517.69230617, 3661.28205004, 3977.30769176, 3439.74358801, 3526.66666514, 3054.87179237, 3334.74358780, 4136.28205108,0
3582.82051143, 3226.79486964, 3467.17948552, 3329.74358780, 3365.51281864, 3324.23076729, 3485.12820353, 3624.61538330, 3959.23076861, 3398.33333153, 3484.35897276, 3027.69230513, 3287.94871594, 4135.89743569,0
3563.84615239, 3189.48717727, 3435.51281878, 3288.97435696, 3333.46153652, 3293.58974158, 3465.51281885, 3602.43589605, 3949.87179425, 3365.25640838, 3460.51281885, 2999.99999736, 3248.58974144, 4137.43589723,0
3558.20512675, 3188.33333111, 3427.56410083, 3274.87179279, 3323.58974165, 3282.05128004, 3462.56410090, 3604.74358836, 3956.15384553, 3368.20512633, 3464.10256244, 3002.43589480, 3256.79486971, 4131.79487152,0
3566.92307547, 3195.51281829, 3434.10256237, 3281.41025433, 3329.74358780, 3286.79486978, 3472.69230603, 3611.15384484, 3962.30769169, 3373.97435710, 3455.38461372, 3016.79486916, 3267.17948510, 4134.23076896,0
3557.82051137, 3194.87179265, 3431.41025468, 3289.87179286, 3334.61538267, 3291.15384414, 3477.17948552, 3610.12820374, 3955.25640963, 3360.12820326, 3438.84615211, 3013.97435634, 3244.23076708, 4135.76923056,0
3545.76922931, 3191.92307470, 3419.10256237, 3287.82051081, 3322.82051088, 3275.51281843, 3461.28204962, 3598.58974220, 3944.48717887, 3342.30769037, 3423.84615211, 3000.38461275, 3221.92307477, 4135.51282031,0
3539.99999848, 3183.07692079, 3403.84615204, 3270.38461330, 3306.15384414, 3256.41025433, 3443.07692134, 3581.28204990, 3944.23076861, 3333.97435703, 3408.97435717, 2993.58974095, 3216.15384393, 4137.69230749,0
3530.25640873, 3172.56410027, 3396.53845974, 3259.10256202, 3302.94871594, 3259.10256202, 3442.05128032, 3571.92307547, 3946.28205066, 3338.97435703, 3413.58974186, 2997.05127941, 3215.64102342, 4131.28205101,0
3534.35897283, 3178.58974130, 3404.74358794, 3270.51281843, 3310.76922876, 3268.58974151, 3452.69230603, 3577.30769085, 3947.82051220, 3353.07692120, 3434.23076750, 3012.43589480, 3226.15384400, 4132.56410229,0
3548.07692162, 3210.38461316, 3432.43589570, 3309.99999799, 3337.30769037, 3290.51281850, 3478.71794705, 3603.33333195, 3962.56410194, 3381.66666486, 3454.23076757, 3052.82051032, 3257.94871587, 4133.71794844,0
3563.84615239, 3233.20512605, 3459.23076757, 3331.92307498, 3357.05128018, 3313.58974158, 3501.28204969, 3627.56410125, 3972.56410201, 3406.15384435, 3465.38461372, 3089.74358732, 3283.97435696, 4130.76923050,0
3561.66666521, 3222.30769016, 3452.94871628, 3300.51281850, 3342.69230575, 3307.69230568, 3496.15384456, 3622.69230638, 3963.07692246, 3401.53845974, 3463.46153680, 3091.02563860, 3283.97435696, 4132.30769203,0
3533.20512668, 3202.56410034, 3426.02563929, 3266.79486971, 3317.69230575, 3284.99999799, 3473.33333167, 3597.30769092, 3948.07692246, 3377.56410069, 3443.07692134, 3071.53845904, 3263.20512612, 4130.25640998,0
3524.48717796, 3190.51281829, 3408.71794692, 3263.58974151, 3300.64102363, 3264.35897228, 3449.23076757, 3575.38461393, 3937.43589674, 3352.82051095, 3415.64102391, 3053.84615135, 3235.25640811, 4133.71794844,0
3536.41025489, 3184.74358752, 3405.64102384, 3269.74358766, 3296.15384414, 3258.97435689, 3450.12820346, 3577.94871656, 3937.30769162, 3347.30769037, 3409.35897256, 3054.48717699, 3228.33333118, 4132.30769203,0
3544.99999854, 3185.89743368, 3406.53845974, 3265.64102356, 3294.99999799, 3259.87179279, 3468.07692141, 3584.48717810, 3940.25640963, 3352.05128018, 3422.82051109, 3066.66666417, 3236.15384400, 4128.71794844,0
3543.07692155, 3181.92307463, 3396.15384435, 3248.07692093, 3287.17948517, 3258.33333125, 3469.74358808, 3574.48717803, 3935.76923008, 3339.74358780, 3413.58974186, 3058.71794622, 3222.30769016, 4136.28205108,0
3527.17948565, 3170.89743361, 3373.33333146, 3230.51281836, 3281.28204920, 3262.56410048, 3464.87179321, 3570.25640880, 3931.66666598, 3319.87179293, 3374.35897249, 3035.64102307, 3195.51281829, 4130.38461511,0
3534.23076771, 3168.97435669, 3369.99999813, 3231.53845939, 3281.92307484, 3263.20512612, 3464.48717782, 3574.23076778, 3933.84615316, 3318.58974165, 3366.79486992, 3037.05127948, 3197.69230547, 4128.20512793,0
3546.53846008, 3172.30769002, 3378.46153659, 3246.66666452, 3278.07692100, 3247.56410041, 3447.94871628, 3557.43589598, 3930.38461469, 3326.53845960, 3388.20512640, 3052.17948461, 3212.43589522, 4135.12820485,0
3537.05128053, 3165.51281822, 3361.66666479, 3237.05127990, 3262.69230561, 3223.71794657, 3419.48717775, 3526.02563950, 3914.99999931, 3305.51281850, 3371.28204941, 3040.76922820, 3193.07692086, 4135.76923056,0
3542.94871642, 3170.12820284, 3353.97435710, 3217.94871580, 3260.25640818, 3224.74358759, 3419.61538288, 3528.07692155, 3915.51281982, 3287.17948517, 3350.38461351, 3038.46153589, 3177.56410027, 4141.02564082,0
3552.82051137, 3192.05127983, 3373.33333146, 3234.99999785, 3277.17948510, 3247.30769016, 3437.82051109, 3554.10256265, 3936.02564033, 3305.12820312, 3360.64102377, 3063.71794622, 3197.05127983, 4138.58974339,0
3554.87179342, 3189.74358752, 3379.23076736, 3258.33333125, 3278.71794664, 3246.66666452, 3432.82051109, 3552.05128060, 3941.66666605, 3313.07692107, 3366.02563915, 3070.76922827, 3203.07692086, 4140.12820492,0
3558.33333188, 3180.76922848, 3374.99999813, 3258.20512612, 3273.46153638, 3238.84615170, 3429.10256237, 3544.87179342, 3938.58974297, 3314.74358773, 3372.43589556, 3072.69230519, 3195.64102342, 4145.89743569,0
3559.10256265, 3190.25640804, 3372.94871608, 3238.58974144, 3277.82051074, 3245.76922862, 3440.89743416, 3555.64102419, 3940.51281989, 3330.12820319, 3384.23076743, 3084.74358725, 3200.64102342, 4140.64102544,0
3556.79487034, 3179.74358745, 3354.48717761, 3214.99999778, 3267.05127997, 3235.38461323, 3428.46153673, 3542.69230617, 3929.48717880, 3311.66666466, 3360.76922890, 3073.33333084, 3184.48717727, 4141.92307672,0
3551.41025495, 3166.79486951, 3340.76922883, 3223.20512605, 3260.64102356, 3224.35897221, 3407.69230589, 3521.02563950, 3919.87179418, 3283.07692107, 3330.76922883, 3060.51281802, 3168.46153617, 4138.20512800,0
3568.33333188, 3184.48717727, 3355.25640838, 3246.02563888, 3273.46153638, 3238.33333118, 3415.76922904, 3537.17948565, 3929.61538392, 3299.99999799, 3341.92307498, 3076.02563853, 3186.28204906, 4134.61538434,0
3591.53846015, 3205.12820291, 3371.41025454, 3246.41025426, 3279.87179279, 3250.38461330, 3432.94871622, 3553.71794726, 3934.87179418, 3322.17948524, 3358.97435710, 3099.23076680, 3200.89743368, 4137.30769210,0
3591.02563964, 3202.82051060, 3368.33333146, 3238.46153631, 3274.61538253, 3243.07692093, 3428.33333160, 3530.25640873, 3921.02564033, 3307.69230568, 3352.69230582, 3108.07692065, 3192.17948496, 4132.56410229,0
3586.53846015, 3191.41025419, 3355.64102377, 3236.66666452, 3261.28204920, 3222.05127990, 3400.76922897, 3501.53845994, 3904.87179411, 3276.66666459, 3337.56410062, 3097.30768988, 3175.76922848, 4134.74358947,0
3575.76922931, 3183.84615163, 3342.69230575, 3226.15384400, 3248.71794657, 3208.07692086, 3376.15384428, 3489.35897276, 3897.56410180, 3256.41025433, 3320.64102370, 3081.02563853, 3163.46153617, 4133.46153819,0
3563.71794726, 3158.84615156, 3323.07692114, 3196.79486958, 3232.82051067, 3197.94871573, 3362.69230582, 3480.64102405, 3895.12820437, 3249.61538253, 3303.97435696, 3066.53845904, 3155.25640797, 4131.79487152,0
3567.82051137, 3149.10256174, 3313.84615183, 3179.87179258, 3223.84615170, 3191.79486958, 3360.38461351, 3488.97435738, 3903.58974283, 3261.66666459, 3308.46153645, 3066.66666417, 3160.12820284, 4136.41025621,0
3582.56410118, 3191.66666445, 3341.66666472, 3208.07692086, 3248.84615170, 3213.33333111, 3379.99999813, 3518.58974206, 3920.51281982, 3297.69230568, 3333.07692114, 3099.35897193, 3187.94871573, 4133.07692280,0
3600.64102426, 3224.48717734, 3370.64102377, 3247.30769016, 3278.07692100, 3242.05127990, 3402.43589563, 3532.05128053, 3925.51281982, 3323.07692114, 3346.66666472, 3132.17948482, 3214.74358752, 4135.51282031,0
3600.89743451, 3219.99999785, 3373.71794685, 3263.07692100, 3285.64102363, 3250.89743382, 3410.25640845, 3533.33333181, 3923.71794803, 3330.12820319, 3356.28204941, 3142.17948482, 3228.71794657, 4134.10256383,0
3593.46153708, 3215.76922855, 3372.43589556, 3254.87179279, 3283.58974158, 3250.89743382, 3412.82051102, 3543.33333181, 3925.25640957, 3333.07692114, 3362.94871608, 3140.76922841, 3230.76922862, 4129.87179460,0
3594.35897297, 3223.84615170, 3373.58974172, 3237.94871580, 3284.61538260, 3258.58974151, 3421.41025468, 3546.28204983, 3926.66666598, 3337.05128011, 3360.38461351, 3141.28204892, 3229.23076708, 4135.89743569,0
3589.74358836, 3234.35897221, 3371.92307505, 3241.15384400, 3292.05128004, 3266.79486971, 3428.71794698, 3540.25640873, 3923.58974290, 3344.61538267, 3362.56410069, 3145.25640790, 3235.64102349, 4131.79487152,0
3594.10256272, 3237.17948503, 3370.38461351, 3255.51281843, 3291.02563901, 3263.97435689, 3426.28204955, 3535.64102412, 3916.66666598, 3341.41025447, 3354.35897249, 3142.05127969, 3236.92307477, 4127.30769203,0
3602.56410118, 3237.17948503, 3374.23076736, 3263.33333125, 3292.30769030, 3270.25640818, 3430.38461365, 3541.02563950, 3918.07692239, 3348.07692120, 3353.97435710, 3151.02563874, 3247.56410041, 4127.94871767,0
3608.84615246, 3250.12820305, 3388.58974179, 3278.07692100, 3309.87179286, 3289.61538260, 3444.99999827, 3551.02563957, 3922.69230700, 3370.51281864, 3382.17948538, 3173.71794643, 3269.61538253, 4128.71794844,0
3621.53846022, 3271.02563894, 3401.28204948, 3292.30769030, 3324.23076729, 3302.82051081, 3457.17948552, 3557.30769085, 3919.74358905, 3370.12820326, 3390.25640845, 3180.64102335, 3269.74358766, 4133.71794844,0
3614.61538330, 3263.71794664, 3387.94871615, 3276.02563894, 3314.48717748, 3295.89743389, 3446.92307526, 3549.87179342, 3909.61538392, 3348.07692120, 3365.64102377, 3167.05127976, 3250.25640818, 4132.05128178,0
3603.84615246, 3235.51281836, 3362.69230582, 3247.94871580, 3289.74358773, 3272.30769023, 3416.79487006, 3524.48717796, 3898.46153770, 3334.99999806, 3355.38461351, 3149.87179251, 3240.12820298, 4131.53846126,0
3611.28204997, 3247.69230554, 3372.05128018, 3269.99999792, 3297.56410055, 3276.15384407, 3416.15384442, 3528.20512668, 3907.30769162, 3351.66666479, 3374.61538274, 3162.17948489, 3258.07692100, 4131.66666639,0
3628.20512689, 3291.41025440, 3407.56410076, 3311.92307491, 3336.41025447, 3312.30769030, 3449.10256244, 3567.56410111, 3928.58974290, 3381.79486999, 3390.76922897, 3197.17948496, 3286.02563901, 4130.12820485,0
3644.74358850, 3312.05128004, 3427.94871622, 3322.82051088, 3356.66666479, 3329.74358780, 3466.53845987, 3583.71794733, 3933.97435828, 3402.56410076, 3404.61538281, 3221.28204913, 3308.20512619, 4134.35897408,0
3644.99999875, 3320.12820319, 3433.97435724, 3334.87179293, 3363.71794685, 3336.02563908, 3473.71794705, 3581.79487041, 3932.30769162, 3421.15384442, 3422.82051109, 3234.87179272, 3324.61538267, 4131.79487152,0
3640.76922945, 3327.56410062, 3436.41025468, 3350.89743403, 3372.94871608, 3349.35897249, 3484.23076764, 3588.71794733, 3930.51281982, 3424.61538288, 3416.02563929, 3234.61538247, 3320.38461344, 4130.64102537,0
3634.35897304, 3323.07692114, 3433.84615211, 3352.43589556, 3376.02563915, 3353.71794685, 3480.89743430, 3581.79487041, 3921.92307623, 3410.38461358, 3404.87179307, 3227.30769016, 3314.99999806, 4132.05128178,0
3629.35897304, 3321.02563908, 3429.99999827, 3348.20512633, 3375.38461351, 3356.02563915, 3478.07692141, 3569.35897290, 3919.48717880, 3413.84615211, 3417.05128032, 3233.07692093, 3332.43589549, 4129.10256383,0
3633.46153715, 3320.51281857, 3424.23076750, 3333.20512626, 3371.79486992, 3360.76922890, 3481.66666507, 3573.07692162, 3919.74358905, 3422.94871622, 3417.82051109, 3234.23076708, 3333.33333139, 4133.84615357,0
3616.92307561, 3309.23076722, 3417.69230596, 3319.10256216, 3361.41025454, 3356.79486992, 3469.61538295, 3569.35897290, 3908.20512751, 3405.89743409, 3398.07692127, 3219.74358759, 3309.99999799, 4134.23076896,0
3592.82051143, 3289.48717748, 3401.15384435, 3309.74358773, 3343.33333139, 3336.41025447, 3444.99999827, 3543.33333181, 3894.48717873, 3377.43589556, 3381.79486999, 3201.66666445, 3293.46153645, 4132.56410229,0
3600.51281913, 3294.74358773, 3386.53845974, 3314.87179293, 3345.12820319, 3335.25640831, 3447.94871628, 3542.94871642, 3904.35897360, 3386.02563922, 3384.74358794, 3204.48717727, 3298.07692107, 4134.61538434,0
3616.66666535, 3322.69230575, 3393.20512640, 3337.56410062, 3365.38461351, 3358.97435710, 3467.82051116, 3565.76922931, 3917.05128136, 3416.53845981, 3401.79486999, 3230.64102349, 3315.12820319, 4130.76923050,0
3602.69230631, 3303.07692107, 3386.02563922, 3322.17948524, 3342.30769037, 3335.38461344, 3443.33333160, 3543.33333181, 3895.12820437, 3390.38461358, 3386.15384435, 3220.89743375, 3299.61538260, 4133.20512793,0
3576.92307547, 3278.71794664, 3368.20512633, 3291.02563901, 3314.99999806, 3300.51281850, 3416.28204955, 3519.48717796, 3882.43589668, 3357.94871608, 3360.12820326, 3195.51281829, 3281.66666459, 4137.05128185,0
3584.74358836, 3306.15384414, 3371.79486992, 3296.66666466, 3334.74358780, 3315.25640831, 3434.61538288, 3543.20512668, 3900.38461462, 3377.05128018, 3365.12820326, 3204.23076701, 3293.46153645, 4135.25640998,0
3602.94871656, 3313.07692107, 3375.25640838, 3306.92307491, 3341.41025447, 3327.17948524, 3446.92307526, 3557.56410111, 3903.33333257, 3387.30769050, 3369.48717761, 3211.15384393, 3294.23076722, 4136.53846133,0
3591.02563964, 3285.25640825, 3369.74358787, 3308.46153645, 3321.92307498, 3313.58974158, 3434.74358801, 3541.41025489, 3891.28205052, 3376.92307505, 3366.41025454, 3203.71794650, 3290.51281850, 4134.87179460,0
3575.38461393, 3273.58974151, 3358.84615197, 3291.53845953, 3306.79486978, 3297.17948517, 3418.84615211, 3518.97435745, 3879.99999924, 3360.76922890, 3352.82051095, 3190.76922855, 3289.10256209, 4131.66666639,0
3565.89743444, 3259.35897228, 3332.43589549, 3252.43589536, 3286.66666466, 3277.82051074, 3401.41025461, 3497.43589584, 3866.28205045, 3328.07692114, 3323.58974165, 3163.58974130, 3265.51281843, 4131.66666639,0
3559.74358829, 3241.66666452, 3320.25640831, 3250.38461330, 3273.84615177, 3270.76922869, 3397.30769050, 3492.43589584, 3865.76922994, 3316.66666472, 3316.15384421, 3151.41025412, 3254.99999792, 4130.64102537,0
3563.07692162, 3258.84615177, 3337.17948524, 3286.28204927, 3287.69230568, 3281.41025433, 3406.79486999, 3504.61538302, 3879.74358898, 3344.74358780, 3338.71794678, 3172.43589515, 3282.56410055, 4127.82051255,0
3554.61538316, 3271.15384407, 3333.20512626, 3280.89743382, 3289.74358773, 3275.38461330, 3392.17948538, 3496.41025482, 3876.66666591, 3348.46153659, 3337.17948524, 3176.15384386, 3287.17948517, 4127.43589716,0
3550.12820367, 3254.61538253, 3318.58974165, 3252.05127997, 3271.66666459, 3259.61538253, 3373.07692120, 3481.41025482, 3863.97435814, 3328.33333139, 3316.53845960, 3163.58974130, 3268.58974151, 4131.02564075,0
3558.84615239, 3259.35897228, 3331.02563908, 3258.46153638, 3276.79486971, 3268.46153638, 3385.64102384, 3492.56410097, 3868.20512738, 3336.53845960, 3329.99999806, 3181.53845925, 3283.97435696, 4128.58974332,0
3560.64102419, 3280.89743382, 3342.17948524, 3269.23076715, 3293.20512619, 3283.46153645, 3399.87179307, 3504.61538302, 3877.17948642, 3351.15384428, 3347.05128011, 3201.02563881, 3303.58974158, 4126.92307665,0
3563.07692162, 3282.17948517, 3341.92307498, 3266.79486971, 3294.87179286, 3287.69230568, 3400.12820333, 3504.87179328, 3878.58974283, 3349.99999813, 3342.05128011, 3203.71794650, 3298.20512619, 4130.12820485,0
3564.23076778, 3281.02563894, 3348.58974172, 3273.84615177, 3297.30769030, 3292.82051081, 3399.61538281, 3511.41025482, 3879.35897360, 3352.30769044, 3341.28204934, 3213.07692086, 3299.87179286, 4129.61538434,0
3571.28204983, 3297.43589542, 3362.43589556, 3289.61538260, 3307.56410055, 3298.97435696, 3398.46153666, 3523.97435745, 3882.94871719, 3363.46153659, 3344.35897242, 3225.64102349, 3313.84615183, 4129.10256383,0
3582.30769092, 3314.99999806, 3376.41025454, 3310.38461337, 3321.92307498, 3311.28204927, 3407.17948538, 3529.87179335, 3887.82051206, 3376.92307505, 3350.12820326, 3238.71794657, 3328.84615190, 4127.30769203,0
3583.58974220, 3320.76922883, 3380.38461351, 3315.51281857, 3333.58974165, 3331.02563908, 3426.02563929, 3531.53846001, 3887.82051206, 3381.15384435, 3361.15384428, 3250.25640818, 3333.71794678, 4127.05128178,0
3585.25640887, 3315.51281857, 3375.51281864, 3301.79486978, 3332.94871601, 3339.48717755, 3434.10256237, 3535.76922924, 3883.58974283, 3377.56410069, 3363.07692120, 3248.33333118, 3325.12820319, 4128.07692280,0
3584.99999861, 3311.53845953, 3378.46153659, 3305.76922876, 3329.23076729, 3338.71794678, 3432.82051109, 3538.20512668, 3883.71794796, 3386.15384435, 3363.71794685, 3253.07692100, 3331.02563908, 4126.15384588,0
3589.35897297, 3321.15384421, 3388.84615204, 3326.15384421, 3334.61538267, 3346.28204934, 3442.30769057, 3536.66666514, 3885.38461462, 3397.82051102, 3374.74358787, 3271.53845946, 3352.82051095, 4129.35897408,0
3587.82051143, 3329.61538267, 3386.53845974, 3329.87179293, 3337.94871601, 3345.64102370, 3444.74358801, 3524.61538309, 3877.30769155, 3393.33333153, 3379.23076736, 3271.15384407, 3359.35897249, 4129.61538434,0
3563.84615239, 3302.43589542, 3359.99999813, 3292.82051081, 3306.02563901, 3303.20512619, 3401.53845974, 3487.82051123, 3854.23076840, 3360.64102377, 3351.92307505, 3236.02563888, 3324.61538267, 4127.94871767,0
3562.05128060, 3283.07692107, 3345.12820319, 3259.87179279, 3282.94871594, 3274.87179279, 3369.35897249, 3468.71794705, 3845.89743507, 3332.69230575, 3329.35897242, 3217.05127990, 3298.20512619, 4129.61538434,0
3596.53846015, 3339.74358780, 3389.23076743, 3315.12820319, 3337.17948524, 3331.41025447, 3421.41025468, 3520.25640873, 3880.89743514, 3383.33333153, 3370.76922890, 3272.56410048, 3350.76922890, 4129.10256383,0
3624.35897304, 3399.48717768, 3443.07692134, 3395.38461358, 3391.53845974, 3387.69230589, 3473.71794705, 3575.76922931, 3907.69230700, 3453.97435731, 3423.58974186, 3336.41025447, 3417.56410083, 4132.69230742,0
3615.76922945, 3395.76922897, 3446.15384449, 3401.41025461, 3383.46153666, 3379.61538274, 3457.17948552, 3567.94871649, 3893.58974283, 3451.28204962, 3423.46153673, 3334.74358780, 3414.74358801, 4131.28205101,0
3598.84615246, 3385.38461358, 3433.97435724, 3383.20512640, 3382.30769050, 3379.35897249, 3444.87179314, 3551.66666521, 3882.30769155, 3426.41025468, 3409.10256230, 3317.30769037, 3386.79486999, 4130.89743562,0
3607.43589605, 3396.28204948, 3438.84615211, 3389.99999820, 3402.69230589, 3402.05128025, 3463.33333167, 3565.12820367, 3889.74358898, 3436.66666493, 3411.92307512, 3323.20512626, 3387.56410076, 4139.48717928,0
3609.74358836, 3404.99999820, 3442.17948545, 3389.48717768, 3407.17948538, 3413.97435724, 3477.30769064, 3577.56410118, 3892.30769155, 3450.76922911, 3410.89743409, 3329.74358780, 3400.51281871, 4138.58974339,0
3606.92307554, 3412.43589563, 3451.53845987, 3394.10256230, 3413.84615211, 3425.51281878, 3488.71794712, 3578.71794733, 3890.89743514, 3457.30769064, 3415.38461365, 3338.58974165, 3414.74358801, 4137.30769210,0
3623.33333202, 3437.30769057, 3481.53845994, 3431.92307519, 3437.69230596, 3444.23076750, 3504.35897276, 3591.53846015, 3902.56410180, 3486.15384456, 3446.79487013, 3371.79486992, 3448.46153680, 4138.58974339,0
3624.74358843, 3448.84615218, 3486.53845994, 3447.82051116, 3447.17948552, 3449.10256244, 3502.30769071, 3594.61538323, 3900.89743514, 3502.69230610, 3460.12820346, 3386.28204948, 3465.51281885, 4134.87179460,0
3608.20512682, 3427.05128032, 3458.84615218, 3427.17948545, 3427.30769057, 3424.74358801, 3480.12820353, 3564.35897290, 3874.61538385, 3469.61538295, 3435.38461365, 3355.12820326, 3436.66666493, 4137.43589723,0
3597.17948579, 3420.12820339, 3450.38461372, 3419.48717775, 3412.43589563, 3406.15384435, 3469.10256244, 3548.20512675, 3867.82051199, 3449.23076757, 3426.15384442, 3342.17948524, 3420.38461365, 4136.79487159,0
3592.43589605, 3423.07692134, 3446.53845987, 3405.51281871, 3405.25640845, 3401.02563922, 3460.51281885, 3551.79487034, 3872.30769148, 3450.89743423, 3422.69230596, 3344.10256216, 3421.92307519, 4130.76923050,0
3583.46153708, 3394.99999820, 3416.41025468, 3374.23076736, 3377.69230582, 3375.51281864, 3431.15384442, 3522.82051130, 3847.69230686, 3413.58974186, 3392.82051102, 3313.20512619, 3384.74358794, 4133.84615357,0
3574.74358829, 3384.23076743, 3408.97435717, 3383.97435717, 3364.61538274, 3362.43589556, 3422.94871622, 3500.76922917, 3834.99999910, 3386.53845974, 3389.87179307, 3304.99999799, 3361.66666479, 4133.33333306,0
3586.92307554, 3409.23076743, 3434.74358801, 3407.82051102, 3378.71794685, 3379.48717761, 3446.66666500, 3534.23076771, 3863.07692225, 3414.48717775, 3413.58974186, 3335.38461344, 3389.99999820, 4131.53846126,0
3586.02563964, 3405.89743409, 3429.61538288, 3381.15384435, 3374.48717761, 3375.89743403, 3440.64102391, 3551.53846008, 3870.89743507, 3424.87179314, 3397.94871615, 3330.51281857, 3396.66666486, 4133.97435870,0
3559.35897290, 3374.74358787, 3400.12820333, 3339.61538267, 3346.41025447, 3344.99999806, 3402.56410076, 3509.74358815, 3844.10256327, 3393.97435717, 3367.17948531, 3294.87179286, 3364.99999813, 4128.46153819,0
3554.99999854, 3371.92307505, 3390.76922897, 3332.69230575, 3331.28204934, 3334.48717755, 3391.92307512, 3481.28204969, 3830.51281961, 3371.92307505, 3366.02563915, 3282.56410055, 3347.69230582, 4128.33333306,0
3559.74358829, 3381.53845974, 3391.28204948, 3351.53845967, 3340.25640831, 3348.33333146, 3410.76922897, 3501.15384456, 3843.20512738, 3376.92307505, 3372.56410069, 3287.17948517, 3357.69230582, 4127.56410229,0
3554.74358829, 3363.33333146, 3383.97435717, 3345.51281857, 3339.74358780, 3348.71794685, 3416.79487006, 3514.87179335, 3850.38461455, 3379.74358787, 3361.02563915, 3277.17948510, 3356.15384428, 4126.15384588,0
3553.20512675, 3343.84615190, 3376.92307505, 3312.56410055, 3321.15384421, 3332.82051088, 3404.48717768, 3502.17948559, 3841.41025558, 3368.71794685, 3349.99999813, 3262.30769023, 3335.89743396, 4130.89743562,0
3548.84615239, 3345.51281857, 3372.56410069, 3302.56410055, 3308.20512619, 3314.61538260, 3384.87179307, 3486.53845994, 3832.17948628, 3360.64102377, 3346.66666472, 3252.69230561, 3329.48717755, 4124.35897408,0
3540.25640873, 3339.99999806, 3358.33333146, 3299.74358773, 3300.12820312, 3297.82051081, 3367.94871608, 3468.84615218, 3824.35897346, 3345.38461344, 3330.64102370, 3229.35897221, 3320.25640831, 4124.35897408,0
3538.58974206, 3342.05128011, 3355.89743403, 3297.94871594, 3307.94871594, 3310.64102363, 3383.58974179, 3473.20512654, 3828.33333243, 3333.07692114, 3322.94871601, 3219.35897221, 3308.33333132, 4129.23076896,0
3551.79487034, 3364.35897249, 3372.30769044, 3314.35897235, 3321.28204934, 3329.61538267, 3402.56410076, 3493.07692148, 3837.43589654, 3342.69230575, 3336.28204934, 3234.35897221, 3315.38461344, 4128.97435870,0
3554.87179342, 3363.71794685, 3372.82051095, 3313.20512619, 3312.05128004, 3312.56410055, 3379.10256223, 3483.58974200, 3833.84615295, 3348.84615197, 3336.66666472, 3229.87179272, 3318.97435703, 4134.10256383,0
3552.30769085, 3366.92307505, 3379.48717761, 3312.30769030, 3321.15384421, 3318.20512626, 3378.71794685, 3487.05128046, 3839.99999917, 3368.84615197, 3344.48717755, 3232.94871580, 3340.38461344, 4130.89743562,0
3582.30769092, 3405.25640845, 3416.02563929, 3357.17948531, 3362.05128018, 3367.82051095, 3433.20512647, 3529.23076771, 3862.69230686, 3419.35897263, 3385.89743409, 3273.20512612, 3390.25640845, 4127.30769203,0
3602.94871656, 3437.69230596, 3451.66666500, 3410.64102384, 3391.66666486, 3400.89743409, 3466.02563936, 3556.02563957, 3874.61538385, 3460.64102398, 3428.33333160, 3309.23076722, 3423.84615211, 4127.30769203,0
3595.64102426, 3449.99999834, 3465.25640859, 3417.56410083, 3403.71794692, 3408.07692127, 3459.48717782, 3550.12820367, 3867.56410173, 3468.84615218, 3435.64102391, 3315.89743396, 3427.30769057, 4127.69230742,0
3599.61538323, 3460.64102398, 3470.64102398, 3403.71794692, 3415.12820339, 3420.64102391, 3465.64102398, 3548.97435752, 3865.51281968, 3469.99999834, 3430.76922904, 3317.56410062, 3430.25640852, 4131.28205101,0
3610.25640894, 3476.92307526, 3487.82051123, 3427.56410083, 3429.87179314, 3442.56410083, 3494.48717789, 3574.48717803, 3878.33333257, 3496.28204969, 3451.92307526, 3339.48717755, 3459.87179321, 4128.58974332,0
3617.69230638, 3486.41025482, 3504.35897276, 3458.07692141, 3437.69230596, 3452.05128039, 3505.25640866, 3599.74358836, 3882.43589668, 3517.43589591, 3467.30769064, 3358.46153659, 3490.12820353, 4126.53846126,0
3612.17948586, 3485.89743430, 3497.17948559, 3451.28204962, 3441.66666493, 3447.82051116, 3489.35897276, 3591.28204990, 3869.61538379, 3506.15384456, 3461.28204962, 3351.66666479, 3486.92307533, 4124.61538434,0
3607.05128067, 3487.30769071, 3497.56410097, 3445.89743416, 3453.20512654, 3458.58974193, 3493.71794712, 3581.02563964, 3866.53846071, 3504.99999841, 3473.07692141, 3351.66666479, 3477.17948552, 4125.64102537,0
3609.61538323, 3481.79487020, 3501.92307533, 3442.30769057, 3449.87179321, 3467.30769064, 3499.87179328, 3582.30769092, 3867.94871712, 3508.33333174, 3478.07692141, 3352.56410069, 3471.15384449, 4130.76923050,0
3593.84615246, 3471.41025475, 3478.20512654, 3412.69230589, 3427.43589570, 3445.38461365, 3475.51281885, 3566.66666521, 3856.15384532, 3482.82051123, 3448.84615218, 3327.69230575, 3451.92307526, 4127.56410229,0
3603.20512682, 3494.35897276, 3492.43589584, 3438.58974186, 3445.89743416, 3453.20512654, 3488.07692148, 3577.43589605, 3866.79487096, 3495.12820353, 3458.07692141, 3341.92307498, 3471.92307526, 4126.28205101,0
3641.79487048, 3553.46153701, 3562.43589598, 3533.46153694, 3509.99999841, 3514.10256258, 3551.41025495, 3628.46153715, 3897.69230693, 3568.20512675, 3520.89743437, 3414.35897263, 3541.53846001, 4129.87179460,0
3647.43589619, 3581.41025502, 3586.41025502, 3557.17948572, 3537.69230617, 3541.28204976, 3572.17948572, 3639.23076791, 3894.48717873, 3593.07692169, 3538.97435745, 3438.07692134, 3562.94871649, 4133.33333306,0
3631.79487048, 3564.87179342, 3553.33333188, 3512.56410104, 3519.35897283, 3522.69230617, 3551.41025495, 3610.89743458, 3871.41025558, 3558.33333188, 3509.61538302, 3402.05128025, 3527.94871642, 4134.87179460,0
3626.15384484, 3555.89743444, 3543.46153694, 3515.38461386, 3517.56410104, 3527.56410104, 3552.69230624, 3612.94871663, 3874.99999924, 3557.69230624, 3507.94871635, 3394.99999820, 3524.10256258, 4131.28205101,0
3625.76922945, 3554.10256265, 3548.20512675, 3528.97435745, 3520.51281899, 3532.56410104, 3547.17948572, 3619.35897304, 3876.79487103, 3561.92307547, 3513.46153694, 3399.35897256, 3529.99999848, 4130.89743562,0
3617.30769099, 3539.74358822, 3534.61538309, 3501.92307533, 3500.38461379, 3507.94871635, 3520.12820360, 3600.12820374, 3862.05128122, 3535.64102412, 3497.05128046, 3382.17948538, 3510.76922917, 4129.35897408,0
3616.28204997, 3536.28204976, 3532.17948565, 3494.74358815, 3489.10256251, 3497.69230610, 3511.92307540, 3592.17948579, 3860.76922994, 3535.38461386, 3496.79487020, 3381.79486999, 3508.46153687, 4130.64102537,0
3632.43589612, 3556.02563957, 3544.74358829, 3519.99999848, 3500.76922917, 3513.46153694, 3525.38461386, 3605.38461400, 3868.84615302, 3553.07692162, 3512.43589591, 3394.61538281, 3521.53846001, 4133.84615357,0
3636.15384484, 3577.17948572, 3559.87179342, 3544.23076771, 3521.41025489, 3534.35897283, 3544.74358829, 3625.25640894, 3876.92307616, 3563.07692162, 3522.43589591, 3409.99999820, 3529.35897283, 4128.20512793,0
3629.10256279, 3565.64102419, 3566.79487034, 3544.61538316, 3521.15384463, 3532.82051130, 3543.97435745, 3626.92307561, 3876.53846078, 3568.46153701, 3523.07692155, 3416.92307519, 3527.94871642, 4128.58974332,0
3633.33333202, 3565.25640880, 3573.07692162, 3546.66666521, 3523.71794719, 3531.15384463, 3542.56410104, 3622.30769099, 3875.38461462, 3576.79487034, 3527.05128053, 3417.56410083, 3539.10256258, 4129.99999973,0
3641.79487048, 3606.41025502, 3589.35897297, 3571.66666521, 3553.07692162, 3559.61538316, 3564.10256265, 3633.97435766, 3883.33333257, 3592.43589605, 3545.76922931, 3431.92307519, 3564.74358829, 4126.41025614,0
3638.07692176, 3610.38461407, 3588.97435759, 3572.94871649, 3557.05128060, 3565.12820367, 3564.61538316, 3633.97435766, 3881.66666591, 3594.99999861, 3551.28204983, 3434.61538288, 3564.23076778, 4125.76923050,0
3634.10256279, 3595.12820374, 3591.41025502, 3578.97435759, 3552.94871649, 3557.82051137, 3560.76922931, 3632.56410125, 3879.35897360, 3599.99999861, 3554.23076778, 3438.71794698, 3562.82051137, 4123.07692280,0
3656.15384491, 3632.94871663, 3624.87179356, 3621.15384484, 3591.28204990, 3588.84615246, 3594.74358836, 3653.71794747, 3892.05128129, 3628.07692176, 3576.53846008, 3468.97435731, 3589.74358836, 4126.02564075,0
3675.64102439, 3671.66666542, 3650.12820388, 3642.17948586, 3628.20512689, 3623.33333202, 3626.15384484, 3672.05128080, 3900.76923001, 3653.71794747, 3594.74358836, 3494.35897276, 3614.99999868, 4130.89743562,0
3663.71794747, 3663.20512696, 3641.66666535, 3626.92307561, 3621.41025509, 3626.53846022, 3621.66666535, 3670.89743465, 3892.17948642, 3654.23076798, 3592.82051143, 3490.89743430, 3618.58974227, 4126.28205101,0
3655.76922952, 3639.87179356, 3622.43589612, 3603.71794733, 3598.46153708, 3612.43589612, 3605.51281913, 3666.02563978, 3882.82051206, 3636.28204997, 3578.46153708, 3469.74358808, 3606.15384477, 4126.28205101,0
3670.25640901, 3644.74358850, 3631.02563971, 3606.79487041, 3607.05128067, 3617.82051150, 3616.79487048, 3675.64102439, 3889.99999924, 3642.69230638, 3590.64102426, 3477.05128039, 3611.92307561, 4131.15384588,0
3693.97435780, 3673.20512696, 3668.58974234, 3645.89743465, 3635.12820381, 3646.15384491, 3649.61538337, 3694.61538344, 3902.43589668, 3677.17948600, 3623.33333202, 3517.05128053, 3648.46153721, 4131.15384588,0
3708.07692190, 3695.89743472, 3688.84615267, 3672.94871670, 3642.17948586, 3669.48717824, 3672.17948593, 3716.02563992, 3909.35897367, 3699.61538344, 3632.69230638, 3535.38461386, 3672.05128080, 4130.12820485,0
3697.43589626, 3697.17948600, 3679.35897318, 3663.33333209, 3641.41025509, 3678.58974241, 3681.53846036, 3731.15384505, 3911.66666598, 3704.99999882, 3625.25640894, 3524.35897283, 3668.20512696, 4127.30769203,0
3694.99999882, 3695.89743472, 3679.10256293, 3661.66666542, 3658.46153721, 3682.56410139, 3689.61538344, 3726.28205017, 3907.17948649, 3706.15384498, 3630.51281920, 3525.38461386, 3665.12820388, 4128.33333306,0
3698.46153728, 3707.94871677, 3689.74358857, 3680.38461421, 3672.69230645, 3683.33333216, 3687.69230651, 3714.48717838, 3901.79487103, 3706.53846036, 3646.28205004, 3541.53846001, 3671.53846029, 4132.43589716,0
3690.38461421, 3702.17948600, 3684.35897318, 3676.79487062, 3659.61538337, 3676.66666549, 3674.10256286, 3709.10256299, 3897.94871719, 3697.30769113, 3644.23076798, 3539.35897283, 3670.12820388, 4131.28205101,0
3691.02563985, 3689.23076805, 3680.89743472, 3659.23076798, 3649.74358850, 3680.25640908, 3674.61538337, 3706.15384498, 3894.35897360, 3688.33333216, 3629.99999868, 3529.48717796, 3665.51281927, 4131.79487152,0
3700.12820395, 3716.02563992, 3705.25640908, 3673.33333209, 3681.02563985, 3708.58974241, 3701.92307575, 3721.02563992, 3905.25640950, 3719.23076812, 3647.56410132, 3551.28204983, 3686.41025523, 4130.38461511,0
3710.51281940, 3743.84615281, 3726.28205017, 3699.10256293, 3707.82051164, 3726.02563992, 3720.25640915, 3742.82051178, 3917.56410187, 3755.51281947, 3678.97435780, 3576.79487034, 3709.35897325, 4128.46153819,0
3707.17948600, 3739.23076812, 3722.56410146, 3708.97435787, 3701.41025523, 3721.28205017, 3713.84615274, 3741.02563992, 3913.71794803, 3752.94871691, 3680.12820395, 3573.97435752, 3712.94871684, 4129.48717921,0
3699.87179369, 3746.53846050, 3727.30769120, 3718.20512710, 3704.61538344, 3729.61538351, 3716.41025530, 3740.51281940, 3913.84615316, 3753.97435794, 3677.56410139, 3578.71794733, 3726.02563992, 4128.71794844,0
3706.41025523, 3769.35897332, 3738.20512710, 3723.58974248, 3715.64102453, 3736.66666556, 3726.15384505, 3747.69230665, 3916.41025572, 3763.46153742, 3683.46153728, 3590.12820374, 3736.41025530, 4128.97435870,0
3699.23076805, 3765.76922973, 3730.89743479, 3722.69230658, 3707.30769113, 3721.79487069, 3716.15384505, 3739.10256299, 3906.53846085, 3748.20512717, 3674.99999875, 3580.76922938, 3720.64102453, 4125.51282024,0
3689.48717831, 3745.12820409, 3718.33333223, 3725.25640915, 3692.56410139, 3712.82051171, 3703.58974241, 3739.10256299, 3905.64102495, 3742.94871691, 3669.74358850, 3568.84615239, 3708.97435787, 4126.66666639,0
3699.61538344, 3753.84615281, 3724.35897325, 3733.33333223, 3698.20512703, 3723.20512710, 3710.51281940, 3753.46153742, 3917.05128136, 3763.20512717, 3687.56410139, 3580.25640887, 3726.53846043, 4131.53846126,0
3707.69230651, 3777.05128108, 3742.43589640, 3736.02563992, 3720.51281940, 3737.82051171, 3721.41025530, 3754.61538358, 3917.56410187, 3769.99999896, 3699.74358857, 3595.51281913, 3746.92307588, 4128.58974332,0
3710.25640915, 3774.48717852, 3745.38461435, 3733.71794761, 3734.48717838, 3741.02563992, 3720.76922966, 3752.69230665, 3911.53846085, 3761.15384512, 3686.28205010, 3588.71794733, 3739.10256299, 4132.05128178,0
3718.58974248, 3785.25640929, 3749.74358871, 3750.64102460, 3745.25640922, 3751.28205024, 3733.33333223, 3769.35897332, 3919.61538392, 3775.12820416, 3692.82051164, 3592.94871656, 3740.38461428, 4134.35897408,0
3736.92307582, 3817.05128115, 3773.58974255, 3776.15384518, 3764.61538358, 3772.56410153, 3758.07692204, 3781.28205031, 3930.25640957, 3803.46153749, 3717.82051171, 3618.58974227, 3774.87179390, 4132.43589716,0
3753.46153742, 3822.56410166, 3793.97435801, 3787.30769134, 3786.92307595, 3790.51281954, 3770.89743486, 3784.48717852, 3933.46153777, 3824.23076833, 3725.76922966, 3636.15384484, 3798.71794775, 4135.38461518,0
3758.20512717, 3829.99999910, 3805.89743493, 3806.92307595, 3804.48717852, 3810.89743500, 3784.74358877, 3801.92307595, 3937.30769162, 3843.71794789, 3739.99999889, 3649.99999875, 3801.79487083, 4136.02564082,0
3771.02563999, 3862.43589661, 3820.12820423, 3829.23076833, 3810.12820423, 3824.74358884, 3804.61538365, 3810.64102474, 3935.89743521, 3846.28205045, 3761.53846050, 3665.12820388, 3808.33333243, 4136.15384595,0
3772.43589640, 3863.84615302, 3817.69230679, 3821.41025551, 3809.87179397, 3824.74358884, 3813.84615295, 3798.58974262, 3929.23076854, 3828.07692218, 3752.43589640, 3660.64102439, 3811.15384525, 4135.12820485,0
3756.53846050, 3837.56410166, 3800.76922980, 3804.74358877, 3811.15384525, 3820.64102474, 3809.99999910, 3789.35897339, 3923.33333264, 3817.94871705, 3726.92307582, 3639.87179356, 3800.76922980, 4131.79487152,0
3761.66666563, 3841.28205045, 3803.97435801, 3812.43589654, 3806.02564006, 3818.58974269, 3807.43589654, 3794.61538365, 3921.66666598, 3823.97435807, 3729.35897325, 3639.87179356, 3803.46153749, 4132.69230742,0
3768.33333229, 3846.41025558, 3808.97435807, 3808.07692218, 3794.48717852, 3817.17948628, 3806.41025544, 3802.82051185, 3923.84615316, 3824.74358884, 3736.28205017, 3647.30769106, 3805.12820416, 4131.02564075,0
3772.94871691, 3837.69230679, 3804.48717852, 3790.38461442, 3797.82051185, 3820.89743500, 3805.51281954, 3805.76922980, 3927.56410187, 3817.94871705, 3733.84615274, 3643.97435773, 3796.53846057, 4129.61538434,0
3790.64102467, 3858.46153763, 3818.46153756, 3815.51281961, 3819.23076833, 3843.07692225, 3821.28205038, 3810.76922987, 3929.74358905, 3831.53846064, 3751.79487076, 3659.48717824, 3819.10256320, 4129.74358947,0
3789.87179390, 3870.51281968, 3824.87179397, 3839.23076833, 3820.25640936, 3846.79487096, 3819.74358884, 3805.51281954, 3923.33333264, 3840.12820430, 3756.92307588, 3669.35897311, 3824.74358884, 4123.33333306,0
3783.33333236, 3852.69230686, 3816.28205038, 3823.20512731, 3806.41025544, 3824.74358884, 3798.46153749, 3803.33333236, 3925.76923008, 3833.46153756, 3745.25640922, 3659.87179362, 3801.79487083, 4123.97435870,0
3797.94871698, 3869.74358891, 3834.74358884, 3839.35897346, 3828.07692218, 3837.94871705, 3815.76922987, 3827.94871705, 3945.25640963, 3858.33333250, 3764.48717845, 3681.66666549, 3827.94871705, 4125.89743562,0
3814.35897346, 3902.43589668, 3857.43589661, 3871.66666584, 3851.79487096, 3867.05128122, 3848.20512738, 3837.94871705, 3946.28205066, 3883.33333257, 3784.23076826, 3706.28205010, 3863.84615302, 4124.10256383,0
3812.43589654, 3904.87179411, 3854.10256327, 3865.89743507, 3845.64102481, 3864.10256327, 3845.25640943, 3821.53846064, 3933.20512751, 3879.10256334, 3782.43589647, 3699.99999882, 3861.66666584, 4126.92307665,0
3810.89743500, 3907.43589674, 3857.05128122, 3861.02564020, 3847.69230686, 3863.97435814, 3841.53846071, 3826.28205038, 3936.02564033, 3883.07692232, 3795.89743493, 3705.25640908, 3867.43589661, 4126.28205101,0
3822.30769141, 3910.89743521, 3865.51281968, 3866.28205045, 3862.43589661, 3889.35897360, 3865.76922994, 3847.17948635, 3943.20512758, 3891.41025565, 3800.38461442, 3713.97435787, 3874.10256334, 4125.12820485,0
3829.74358884, 3927.17948649, 3876.79487103, 3881.02564027, 3888.33333257, 3924.74358905, 3898.84615309, 3865.38461455, 3953.97435835, 3904.48717873, 3803.07692211, 3726.02563992, 3893.33333257, 4126.28205101,0
3844.48717866, 3965.64102502, 3910.25640957, 3920.38461469, 3914.10256341, 3943.97435835, 3914.74358905, 3880.51281975, 3964.23076861, 3931.53846085, 3838.07692218, 3762.56410153, 3933.71794803, 4130.76923050,0
3859.61538379, 3973.58974304, 3929.61538392, 3940.64102502, 3913.46153777, 3932.56410187, 3906.66666598, 3876.66666591, 3957.05128143, 3937.17948649, 3857.05128122, 3781.66666570, 3930.89743521, 4132.43589716,0
3863.84615302, 3972.69230714, 3927.69230700, 3938.84615322, 3917.56410187, 3932.82051213, 3908.46153777, 3880.51281975, 3958.33333271, 3944.48717887, 3859.23076840, 3784.10256313, 3924.10256341, 4128.58974332,0
3868.84615302, 3986.02564047, 3930.38461469, 3937.43589674, 3931.79487110, 3952.17948656, 3919.10256341, 3893.46153770, 3964.35897374, 3963.20512758, 3867.56410173, 3792.30769134, 3945.38461476, 4130.12820485,0
3853.46153763, 3966.79487117, 3924.61538392, 3929.61538392, 3924.35897367, 3948.84615322, 3913.20512751, 3879.87179411, 3951.15384553, 3949.35897374, 3858.58974276, 3779.99999903, 3936.53846085, 4127.69230742,0
3846.28205045, 3959.61538399, 3923.97435828, 3935.51281982, 3921.53846085, 3942.94871733, 3924.35897367, 3878.97435821, 3952.69230707, 3946.02564040, 3854.35897353, 3771.41025537, 3938.84615322, 4125.64102537,0
3874.35897360, 4003.46153791, 3947.82051220, 3960.25640963, 3950.25640963, 3964.99999938, 3958.97435835, 3911.41025572, 3974.35897381, 3984.87179432, 3882.43589668, 3803.71794775, 3981.79487124, 4128.07692280,0
3884.23076847, 4022.43589695, 3964.99999938, 3974.23076868, 3971.15384553, 3986.15384560, 3968.58974297, 3922.17948649, 3974.48717894, 4004.87179439, 3900.51281975, 3832.82051192, 3992.94871740, 4128.20512793,0
3867.05128122, 3991.15384560, 3949.74358912, 3963.07692246, 3954.61538399, 3973.33333278, 3944.23076861, 3901.53846078, 3959.61538399, 3982.43589688, 3880.12820437, 3809.99999910, 3961.92307630, 4130.25640998,0
3859.23076840, 3980.12820458, 3934.61538392, 3955.51281989, 3946.66666605, 3964.99999938, 3937.82051213, 3901.15384539, 3962.82051220, 3974.10256355, 3871.02564020, 3784.35897339, 3955.64102502, 4128.33333306,0
3863.84615302, 4000.25640970, 3939.61538399, 3959.74358912, 3962.82051220, 3981.53846099, 3956.28205066, 3915.38461469, 3970.38461476, 3988.97435842, 3885.25640950, 3793.07692211, 3968.07692246, 4129.10256383,0
3864.74358891, 4000.25640970, 3938.33333264, 3949.35897374, 3958.58974297, 3981.15384560, 3959.35897374, 3909.35897367, 3965.12820451, 3982.94871740, 3881.79487103, 3793.58974262, 3960.12820451, 4133.46153819,0
3857.05128122, 3990.76923022, 3934.35897367, 3942.43589681, 3947.30769169, 3965.89743528, 3950.25640963, 3900.12820437, 3962.56410194, 3973.58974304, 3867.94871712, 3784.48717852, 3955.76923015, 4130.64102537,0
3867.69230686, 4002.94871740, 3951.28205066, 3960.89743528, 3965.12820451, 3974.23076868, 3959.35897374, 3912.82051213, 3969.48717887, 3991.66666611, 3877.94871719, 3798.46153749, 3974.74358919, 4132.17948691,0
3879.23076847, 4015.89743541, 3967.05128143, 3975.76923022, 3985.12820458, 3999.74358919, 3972.82051227, 3931.02564033, 3974.74358919, 4011.92307644, 3901.02564027, 3815.76922987, 3989.10256355, 4132.56410229,0
3868.07692225, 4001.92307637, 3954.10256348, 3958.20512758, 3973.97435842, 3997.94871740, 3960.64102502, 3922.69230700, 3967.17948656, 3995.76923022, 3896.28205052, 3802.82051185, 3972.56410201, 4129.99999973,0
3876.41025565, 4000.25640970, 3952.56410194, 3955.38461476, 3969.23076861, 3989.99999945, 3960.89743528, 3920.12820444, 3969.87179425, 3986.53846099, 3891.92307616, 3801.28205031, 3967.82051220, 4130.89743562,0
3903.84615309, 4046.92307651, 3992.30769176, 4004.23076875, 4007.30769183, 4025.89743541, 4002.94871740, 3958.46153784, 3994.23076868, 4031.79487131, 3933.33333264, 3848.71794789, 4014.35897388, 4128.71794844,0
3914.10256341, 4073.20512786, 4016.02564054, 4034.74358926, 4032.94871747, 4055.89743548, 4023.71794824, 3976.66666611, 3997.05128150, 4057.94871754, 3958.58974297, 3873.97435821, 4041.28205087, 4129.61538434,0
3908.33333264, 4058.71794830, 4007.17948670, 4029.61538413, 4024.99999952, 4045.76923036, 4005.12820465, 3957.30769169, 3980.64102509, 4042.05128164, 3944.61538399, 3861.79487096, 4027.17948670, 4131.15384588,0
3907.69230700, 4066.53846113, 4015.76923029, 4045.38461497, 4030.51282003, 4046.15384574, 4001.28205073, 3959.99999938, 3983.07692252, 4048.33333292, 3955.25640963, 3872.05128122, 4039.10256369, 4128.20512793,0
3911.41025572, 4080.25640991, 4021.79487131, 4053.97435856, 4036.92307651, 4054.35897395, 4004.61538413, 3971.15384553, 3987.56410201, 4057.30769189, 3966.02564040, 3876.02564027, 4051.79487138, 4127.69230742,0
3905.51281975, 4069.61538420, 4012.43589695, 4041.28205087, 4026.66666618, 4049.99999959, 4002.56410201, 3962.05128143, 3980.64102509, 4047.56410215, 3961.02564040, 3864.23076840, 4038.71794830, 4126.66666639,0
3918.07692239, 4076.02564068, 4037.69230728, 4065.76923036, 4036.02564054, 4057.05128164, 4010.25640977, 3961.02564040, 3981.02564047, 4055.64102523, 3992.30769176, 3898.07692232, 4052.56410215, 4127.17948691,0
3945.89743528, 4114.87179460, 4090.89743555, 4121.66666639, 4062.94871754, 4070.25640991, 4016.41025593, 3973.58974304, 3988.97435842, 4077.69230735, 4046.79487138, 3964.87179425, 4096.79487145, 4128.20512793,0
3954.87179425, 4153.71794851, 4139.61538441, 4172.82051269, 4081.41025607, 4081.02564068, 4026.66666618, 3986.53846099, 3997.43589688, 4096.02564068, 4103.97435870, 4026.79487131, 4133.97435870, 4124.61538434,0
3964.99999938, 4177.30769217, 4188.58974345, 4223.84615378, 4090.64102530, 4099.10256376, 4053.20512779, 4000.89743535, 4005.25640977, 4113.84615357, 4162.69230749, 4085.12820478, 4162.30769210, 4125.38461511,0
3979.23076868, 4196.53846140, 4231.02564096, 4269.87179495, 4101.02564068, 4116.15384588, 4072.69230735, 4013.33333285, 4009.99999952, 4131.41025614, 4196.92307679, 4128.58974332, 4188.20512807, 4126.92307665,0
3986.53846099, 4213.20512814, 4252.56410257, 4287.82051289, 4114.35897408, 4119.35897408, 4067.30769189, 4019.23076875, 4011.41025593, 4143.07692287, 4206.41025634, 4147.56410236, 4207.05128199, 4124.74358947,0
3998.71794817, 4217.94871788, 4266.02564103, 4295.51282059, 4125.12820485, 4125.76923050, 4064.99999959, 4027.43589695, 4014.74358926, 4153.46153826, 4224.10256404, 4162.69230749, 4226.28205122, 4124.35897408,0
4001.66666611, 4221.02564096, 4272.69230777, 4316.28205142, 4131.53846126, 4140.64102544, 4081.02564068, 4034.10256362, 4015.89743541, 4161.28205108, 4235.89743590, 4170.51282038, 4239.10256411, 4124.10256383,0
3995.76923022, 4223.07692301, 4253.58974359, 4314.23076937, 4133.97435870, 4146.41025621, 4099.35897402, 4031.79487131, 4010.25640977, 4159.99999980, 4216.92307686, 4144.10256390, 4221.66666660, 4125.76923050,0
3995.12820458, 4225.89743583, 4237.43589744, 4293.46153853, 4152.17948697, 4164.10256390, 4125.38461511, 4045.12820472, 4017.17948670, 4174.74358961, 4207.94871788, 4123.33333306, 4208.97435891, 4124.74358947,0
3995.89743535, 4223.33333327, 4235.12820513, 4286.66666674, 4168.33333320, 4189.23076910, 4147.05128185, 4067.17948677, 4028.84615336, 4194.48717935, 4211.79487173, 4122.69230742, 4219.23076917, 4125.12820485,0
3991.53846099, 4201.79487173, 4212.17948711, 4268.46153853, 4155.51282031, 4180.38461525, 4134.87179460, 4055.38461497, 4018.20512772, 4180.76923063, 4184.23076910, 4092.43589709, 4205.25641019, 4129.23076896,0
3978.84615329, 4183.33333320, 4179.48717935, 4228.33333327, 4146.41025621, 4163.07692287, 4109.23076896, 4031.79487131, 4007.82051234, 4163.84615364, 4146.02564082, 4050.64102523, 4180.38461525, 4126.92307665,0
3982.30769176, 4181.66666653, 4168.58974345, 4201.41025634, 4143.46153826, 4161.15384595, 4102.30769196, 4035.12820465, 4014.87179439, 4172.05128192, 4132.30769203, 4040.76923036, 4186.41025628, 4126.66666639,0
4000.38461483, 4193.46153833, 4180.38461525, 4213.71794865, 4144.10256390, 4165.25641005, 4114.99999973, 4054.99999959, 4022.17948670, 4188.58974345, 4140.12820492, 4053.46153805, 4201.66666660, 4126.28205101,0
4005.64102516, 4211.02564096, 4195.38461525, 4231.41025634, 4166.28205108, 4180.51282038, 4134.74358947, 4076.15384581, 4028.58974311, 4204.23076917, 4149.23076903, 4059.10256369, 4201.28205122, 4124.10256383,0
4004.23076875, 4215.38461532, 4185.64102551, 4220.38461532, 4179.35897422, 4189.23076910, 4132.69230742, 4085.89743555, 4033.58974311, 4206.15384609, 4137.30769210, 4042.05128164, 4191.41025628, 4127.82051255,0
4003.71794817, 4202.56410250, 4162.30769210, 4203.71794865, 4166.66666646, 4178.07692294, 4105.51282024, 4074.23076889, 4026.15384567, 4188.07692294, 4115.89743562, 4022.94871747, 4178.46153833, 4127.56410229,0
4013.71794824, 4186.66666653, 4160.64102544, 4195.12820499, 4164.23076903, 4172.30769217, 4092.43589709, 4057.56410215, 4016.79487131, 4173.20512807, 4108.07692280, 4020.64102516, 4165.25641005, 4127.56410229,0
4021.92307644, 4185.64102551, 4167.69230749, 4185.64102551, 4176.28205115, 4180.38461525, 4105.76923050, 4060.64102523, 4021.79487131, 4178.20512807, 4108.46153819, 4018.20512772, 4167.43589723, 4131.28205101,0
4016.41025593, 4191.66666653, 4157.69230749, 4176.66666653, 4176.92307679, 4187.30769217, 4121.79487152, 4073.33333299, 4028.07692259, 4192.43589730, 4110.25640998, 4010.64102516, 4181.53846140, 4131.53846126,0
4016.79487131, 4181.79487166, 4144.74358954, 4167.56410236, 4168.20512807, 4183.07692294, 4121.41025614, 4066.53846113, 4018.71794824, 4189.23076910, 4105.64102537, 4001.92307637, 4175.51282038, 4131.15384588,0
4020.51282003, 4173.46153833, 4144.87179467, 4166.79487159, 4169.48717935, 4183.07692294, 4117.56410229, 4059.23076882, 4014.99999952, 4181.92307679, 4100.25640991, 3997.30769176, 4165.25641005, 4129.74358947,0
4037.82051241, 4200.89743576, 4165.89743569, 4189.48717935, 4188.46153833, 4204.99999993, 4132.05128178, 4082.43589709, 4034.61538413, 4204.48717942, 4115.64102537, 4013.58974311, 4188.20512807, 4129.74358947,0
4062.30769189, 4227.17948711, 4191.92307679, 4215.38461532, 4210.38461532, 4227.56410250, 4151.02564082, 4105.64102537, 4046.79487138, 4230.12820506, 4137.56410236, 4040.51282010, 4217.05128199, 4131.66666639,0
4058.33333292, 4218.20512814, 4191.53846140, 4216.53846147, 4215.76923070, 4228.07692301, 4153.20512800, 4099.35897402, 4034.61538413, 4222.69230763, 4132.30769203, 4044.48717907, 4213.07692301, 4130.12820485,0
4052.17948677, 4207.94871788, 4172.17948704, 4196.02564089, 4208.71794865, 4221.92307686, 4148.20512800, 4088.71794837, 4026.79487131, 4201.92307686, 4108.84615357, 4022.94871747, 4194.35897422, 4129.10256383,0
4057.82051241, 4217.17948711, 4168.46153833, 4184.87179474, 4209.23076917, 4228.20512814, 4153.84615364, 4098.71794837, 4037.05128164, 4205.12820506, 4105.76923050, 4016.66666618, 4193.58974345, 4127.05128178,0
4058.84615343, 4218.58974352, 4175.76923063, 4194.23076910, 4211.92307686, 4227.17948711, 4156.28205108, 4107.69230742, 4041.41025600, 4219.23076917, 4118.97435870, 4027.94871747, 4197.56410243, 4126.28205101,0
4065.89743548, 4225.64102558, 4186.53846140, 4219.35897429, 4219.23076917, 4227.17948711, 4161.28205108, 4114.48717921, 4044.10256369, 4236.02564103, 4136.79487159, 4038.07692266, 4209.23076917, 4129.74358947,0
4078.97435863, 4261.53846154, 4212.82051275, 4253.33333334, 4248.46153847, 4257.56410257, 4186.66666653, 4137.82051262, 4062.69230728, 4273.71794879, 4165.76923056, 4062.69230728, 4248.33333334, 4130.64102537,0
4086.53846119, 4282.05128212, 4231.02564096, 4266.41025641, 4266.41025641, 4277.17948725, 4198.84615371, 4150.64102544, 4068.84615343, 4293.97435905, 4178.97435884, 4081.15384581, 4269.87179495, 4128.84615357,0
4082.30769196, 4275.00000007, 4226.15384609, 4257.56410257, 4262.30769231, 4272.56410264, 4195.51282038, 4143.20512800, 4058.33333292, 4286.79487187, 4169.87179474, 4073.71794837, 4256.15384616, 4126.41025614,0
4077.30769196, 4264.35897436, 4218.97435891, 4248.33333334, 4264.74358975, 4277.94871802, 4203.33333327, 4143.97435877, 4058.20512779, 4284.61538469, 4164.35897415, 4064.61538420, 4247.30769231, 4128.71794844,0
4080.25640991, 4253.84615385, 4215.89743583, 4241.28205129, 4266.28205129, 4287.05128212, 4210.76923070, 4155.12820492, 4064.87179446, 4283.71794879, 4164.48717928, 4060.89743548, 4247.43589744, 4131.79487152,0
4078.58974325, 4254.61538462, 4215.76923070, 4244.23076923, 4264.23076923, 4289.35897443, 4211.28205122, 4154.74358954, 4062.94871754, 4278.33333341, 4163.58974339, 4062.05128164, 4242.94871795, 4127.56410229,0
4084.48717914, 4261.53846154, 4220.12820506, 4249.87179488, 4270.51282059, 4293.46153853, 4214.99999993, 4142.94871774, 4055.25640984, 4274.10256418, 4162.69230749, 4066.79487138, 4242.56410257, 4126.66666639,0
4093.71794837, 4262.82051282, 4225.12820506, 4248.33333334, 4279.10256418, 4301.92307707, 4224.23076917, 4146.79487159, 4056.79487138, 4277.30769238, 4165.89743569, 4072.82051248, 4250.12820513, 4126.02564075,0
4092.17948684, 4263.46153847, 4229.87179481, 4254.61538462, 4281.79487187, 4306.41025655, 4228.33333327, 4161.66666646, 4063.33333292, 4282.43589751, 4166.02564082, 4076.92307658, 4250.64102564, 4120.76923050,0
4098.58974325, 4272.05128212, 4237.94871795, 4267.69230777, 4285.00000007, 4304.23076937, 4226.28205122, 4160.12820492, 4062.69230728, 4281.92307700, 4163.58974339, 4082.94871761, 4248.07692308, 4124.74358947,0
4102.94871767, 4284.61538469, 4246.66666667, 4270.76923084, 4296.79487187, 4305.25641040, 4225.12820506, 4151.41025621, 4061.53846113, 4284.10256418, 4175.76923063, 4095.89743555, 4255.12820513, 4125.64102537,0
4104.35897408, 4292.56410264, 4247.30769231, 4271.41025648, 4300.25641040, 4308.84615399, 4223.58974352, 4156.02564082, 4065.51282010, 4285.89743597, 4185.38461525, 4102.94871767, 4258.07692308, 4121.92307665,0
4108.71794844, 4292.43589751, 4244.74358975, 4284.23076930, 4295.76923084, 4310.89743604, 4225.38461532, 4164.10256390, 4068.33333292, 4283.58974366, 4180.89743576, 4102.94871767, 4253.84615385, 4126.53846126,0
4106.41025614, 4290.12820520, 4253.20512821, 4297.56410264, 4301.79487194, 4312.30769245, 4228.84615378, 4167.43589723, 4066.53846113, 4292.82051289, 4189.87179474, 4112.69230742, 4265.00000000, 4128.07692280,0
4105.76923050, 4286.53846161, 4260.51282052, 4290.25641033, 4302.17948732, 4306.66666681, 4225.25641019, 4164.10256390, 4063.71794830, 4305.51282066, 4202.17948711, 4121.53846126, 4277.30769238, 4125.64102537,0
4105.64102537, 4284.74358982, 4258.58974359, 4289.61538469, 4298.84615392, 4309.35897450, 4231.02564096, 4167.17948697, 4066.66666625, 4307.43589758, 4200.51282038, 4126.41025614, 4274.35897443, 4122.30769203,0
4107.82051255, 4288.97435905, 4259.61538462, 4301.53846168, 4304.23076937, 4322.69230784, 4246.66666667, 4178.33333320, 4069.87179453, 4304.61538476, 4200.12820499, 4132.82051255, 4272.82051289, 4123.71794844,0
4113.84615357, 4297.43589751, 4258.84615385, 4298.20512828, 4306.02564117, 4319.87179501, 4245.64102564, 4176.02564089, 4066.15384574, 4298.58974366, 4203.97435891, 4136.53846133, 4273.20512828, 4130.76923050,0
4114.87179460, 4304.61538476, 4258.58974359, 4303.46153860, 4306.66666681, 4315.89743604, 4242.82051282, 4167.82051262, 4066.15384574, 4303.46153860, 4208.20512814, 4144.48717928, 4274.35897443, 4130.89743562,0
4117.94871767, 4296.53846161, 4262.43589744, 4314.87179501, 4310.64102578, 4326.66666681, 4255.25641026, 4178.33333320, 4074.35897402, 4318.20512835, 4210.76923070, 4150.89743569, 4275.12820520, 4129.99999973,0
4117.56410229, 4292.05128212, 4262.94871795, 4311.15384630, 4314.23076937, 4338.58974380, 4263.33333334, 4192.82051269, 4081.53846119, 4322.05128219, 4213.84615378, 4151.92307672, 4275.89743597, 4127.69230742,0
4117.69230742, 4308.46153860, 4266.53846154, 4314.87179501, 4320.51282066, 4342.30769252, 4264.61538462, 4188.97435884, 4081.66666632, 4320.76923091, 4222.43589737, 4160.25641005, 4284.23076930, 4125.51282024,0
4129.48717921, 4316.92307707, 4272.43589751, 4330.25641040, 4328.71794886, 4341.15384637, 4270.51282059, 4192.69230756, 4081.92307658, 4327.94871809, 4224.48717942, 4172.43589730, 4291.79487187, 4127.56410229,0
4134.48717921, 4312.82051296, 4275.38461546, 4333.84615406, 4330.64102578, 4344.23076944, 4277.43589751, 4206.41025634, 4084.61538427, 4332.56410278, 4221.41025634, 4178.07692294, 4291.79487187, 4126.02564075,0
4130.25640998, 4309.23076937, 4272.94871802, 4323.46153860, 4321.02564117, 4334.74358996, 4270.38461546, 4189.87179474, 4075.89743555, 4317.17948732, 4216.15384609, 4169.61538448, 4275.64102571, 4128.20512793,0
4124.99999973, 4312.17948732, 4267.43589751, 4326.15384630, 4317.17948732, 4317.69230784, 4255.51282052, 4169.23076910, 4068.20512779, 4306.79487194, 4209.23076917, 4166.66666646, 4264.61538462, 4131.92307665,0
4127.43589716, 4322.30769245, 4274.23076930, 4339.48717970, 4327.43589758, 4322.05128219, 4261.79487180, 4188.46153833, 4080.89743555, 4322.05128219, 4215.38461532, 4182.30769217, 4278.07692315, 4129.61538434,0
4134.35897408, 4319.87179501, 4283.46153853, 4334.23076944, 4327.05128219, 4333.46153867, 4278.33333341, 4204.10256404, 4088.20512786, 4324.35897450, 4225.51282045, 4188.71794858, 4284.74358982, 4130.51282024,0
4128.58974332, 4305.12820527, 4279.23076930, 4322.05128219, 4320.25641040, 4332.56410278, 4279.35897443, 4192.94871781, 4079.48717914, 4313.97435912, 4225.64102558, 4183.46153833, 4278.71794879, 4131.79487152,0
4130.89743562, 4310.89743604, 4280.00000007, 4325.00000014, 4327.43589758, 4335.12820534, 4280.00000007, 4196.92307679, 4080.12820478, 4325.00000014, 4229.74358968, 4195.12820499, 4287.56410264, 4131.15384588,0
4143.58974339, 4332.82051303, 4292.56410264, 4332.82051303, 4335.12820534, 4345.76923098, 4290.89743597, 4209.61538455, 4090.25640991, 4339.87179508, 4242.43589744, 4214.99999993, 4305.38461553, 4130.38461511,0
4145.64102544, 4335.89743611, 4292.94871802, 4338.07692329, 4333.97435919, 4348.33333355, 4295.76923084, 4208.58974352, 4093.07692273, 4337.69230790, 4245.12820513, 4213.84615378, 4304.23076937, 4129.35897408,0
4145.51282031, 4322.56410271, 4285.76923084, 4346.53846175, 4335.76923098, 4345.12820534, 4293.07692315, 4206.79487173, 4087.56410222, 4332.82051303, 4240.89743590, 4203.33333327, 4292.05128212, 4128.84615357,0
4144.35897415, 4321.41025655, 4289.74358982, 4350.25641047, 4339.35897457, 4345.89743611, 4290.64102571, 4205.12820506, 4085.12820478, 4333.84615406, 4245.76923077, 4206.66666660, 4293.46153853, 4127.05128178,0
4146.79487159, 4334.10256431, 4294.61538469, 4343.71794893, 4338.46153867, 4345.00000021, 4287.56410264, 4204.87179481, 4091.15384581, 4332.30769252, 4244.61538462, 4210.76923070, 4295.89743597, 4128.58974332,0
4155.64102544, 4350.51282073, 4300.76923091, 4351.79487201, 4347.56410278, 4351.41025662, 4295.00000007, 4214.35897429, 4096.28205094, 4336.53846175, 4246.53846154, 4214.74358968, 4299.10256418, 4131.92307665,0
4158.58974339, 4351.66666688, 4305.89743604, 4355.51282073, 4356.66666688, 4359.74358996, 4300.25641040, 4218.33333327, 4092.56410222, 4346.02564124, 4252.30769231, 4219.48717942, 4307.69230784, 4131.53846126,0
4155.38461518, 4328.71794886, 4291.53846161, 4332.56410278, 4339.48717970, 4341.79487201, 4276.41025648, 4205.51282045, 4087.43589709, 4336.15384637, 4236.28205129, 4207.17948711, 4299.35897443, 4129.61538434,0
4152.17948697, 4326.92307707, 4287.82051289, 4337.43589765, 4331.79487194, 4331.41025655, 4267.94871802, 4210.38461532, 4094.35897402, 4331.28205142, 4233.97435898, 4206.28205122, 4293.71794879, 4128.46153819,0
4161.53846133, 4357.43589765, 4320.00000014, 4377.82051310, 4360.12820534, 4363.07692329, 4305.25641040, 4236.53846154, 4104.61538434, 4352.30769252, 4267.43589751, 4238.46153847, 4315.00000014, 4128.07692280,0
4176.66666653, 4375.12820541, 4343.97435919, 4396.28205156, 4380.76923105, 4390.12820541, 4331.66666681, 4244.10256411, 4104.48717921, 4364.48717970, 4285.38461546, 4259.35897436, 4329.61538476, 4125.89743562,0
4176.02564089, 4371.79487208, 4339.74358996, 4394.61538490, 4375.76923105, 4384.35897464, 4318.33333348, 4236.15384616, 4101.02564068, 4356.92307714, 4273.84615392, 4254.23076923, 4324.23076937, 4125.12820485,0
4174.35897422, 4359.61538483, 4331.66666681, 4385.51282079, 4362.56410278, 4370.38461567, 4299.10256418, 4230.12820506, 4099.23076889, 4347.17948739, 4264.10256411, 4246.02564103, 4316.66666681, 4128.58974332,0
4176.02564089, 4352.43589765, 4331.02564117, 4374.74359003, 4359.23076944, 4368.84615413, 4299.87179501, 4230.64102558, 4100.89743555, 4351.79487201, 4266.92307700, 4248.33333334, 4318.46153860, 4126.15384588,0
4178.71794858, 4358.97435919, 4338.07692329, 4381.66666695, 4367.17948746, 4373.58974387, 4308.84615399, 4238.97435898, 4107.30769203, 4368.84615413, 4276.28205136, 4259.87179488, 4330.00000014, 4122.69230742,0
4185.25641012, 4365.25641054, 4342.17948739, 4385.89743618, 4367.94871823, 4370.00000028, 4306.79487194, 4245.38461539, 4110.76923050, 4373.97435926, 4280.76923084, 4262.43589744, 4338.33333355, 4127.69230742,0
4180.76923063, 4365.38461567, 4336.02564124, 4377.82051310, 4368.71794900, 4369.23076951, 4305.00000014, 4244.10256411, 4107.05128178, 4365.64102592, 4276.92307700, 4255.76923077, 4336.15384637, 4128.46153819,0
4180.25641012, 4367.56410285, 4331.28205142, 4377.82051310, 4376.02564131, 4380.00000028, 4314.74358989, 4239.74358975, 4101.79487145, 4359.35897457, 4270.89743597, 4252.94871795, 4331.41025655, 4125.64102537,0
4184.35897422, 4365.25641054, 4331.92307707, 4375.25641054, 4378.33333362, 4386.02564131, 4322.69230784, 4244.35897436, 4103.84615357, 4357.94871816, 4268.46153853, 4251.53846154, 4328.46153860, 4125.38461511,0
4177.17948704, 4351.02564124, 4324.61538476, 4363.46153867, 4366.53846182, 4375.38461567, 4314.10256425, 4242.05128206, 4103.58974332, 4349.10256431, 4264.87179488, 4241.02564103, 4319.61538476, 4125.76923050,0
4173.46153833, 4344.23076944, 4317.56410271, 4365.00000021, 4356.66666688, 4362.30769252, 4308.07692322, 4227.56410250, 4099.10256376, 4339.48717970, 4264.74358975, 4231.41025634, 4310.25641040, 4127.94871767,0
4177.05128192, 4356.02564124, 4327.43589758, 4381.92307720, 4367.82051310, 4367.69230797, 4322.05128219, 4229.35897429, 4104.61538434, 4350.12820534, 4279.35897443, 4242.17948718, 4318.58974373, 4125.38461511,0
4181.92307679, 4357.43589765, 4329.48717963, 4380.12820541, 4369.61538490, 4370.00000028, 4329.23076937, 4239.23076923, 4109.61538434, 4360.76923098, 4286.15384623, 4246.92307693, 4325.38461553, 4125.25640998,0
4179.61538448, 4342.30769252, 4317.30769245, 4361.92307714, 4356.53846175, 4361.92307714, 4323.20512835, 4237.30769231, 4106.02564075, 4355.51282073, 4277.17948725, 4234.87179488, 4320.38461553, 4126.92307665,0
4173.20512807, 4340.00000021, 4316.28205142, 4361.02564124, 4357.94871816, 4367.17948746, 4328.07692322, 4239.10256411, 4107.56410229, 4355.89743611, 4272.43589751, 4232.05128199, 4322.56410271, 4123.97435870,0
4181.15384602, 4350.25641047, 4324.35897450, 4374.35897464, 4367.17948746, 4378.58974387, 4339.35897457, 4250.64102564, 4112.30769203, 4363.20512842, 4274.87179495, 4240.00000000, 4328.07692322, 4127.30769203,0
4190.89743576, 4360.89743611, 4332.43589765, 4385.51282079, 4374.61538490, 4387.56410285, 4343.71794893, 4258.84615385, 4114.74358947, 4373.71794900, 4287.82051289, 4254.61538462, 4337.30769252, 4128.97435870,0
4193.20512807, 4369.35897464, 4340.64102585, 4391.02564131, 4379.48717977, 4384.74359003, 4327.17948732, 4256.28205129, 4114.10256383, 4376.92307720, 4297.82051289, 4265.00000000, 4346.02564124, 4128.97435870,0
4196.79487166, 4366.53846182, 4340.64102585, 4392.94871823, 4378.33333362, 4375.76923105, 4303.33333348, 4255.51282052, 4114.23076896, 4370.25641054, 4292.94871802, 4264.61538462, 4343.71794893, 4130.25640998,0
4201.15384609, 4364.74358996, 4340.51282073, 4393.71794900, 4381.15384644, 4384.23076951, 4309.10256425, 4265.64102564, 4119.74358947, 4374.48717977, 4290.89743597, 4270.25641033, 4343.20512842, 4128.33333306,0
4204.10256404, 4375.12820541, 4345.12820534, 4389.61538490, 4385.76923105, 4392.69230797, 4326.28205142, 4269.74358982, 4121.92307665, 4379.35897464, 4296.15384623, 4274.10256418, 4343.71794893, 4130.25640998,0
4196.79487166, 4377.43589772, 4343.46153867, 4388.84615413, 4382.17948746, 4385.00000028, 4318.71794886, 4259.87179488, 4117.30769203, 4370.51282079, 4293.71794879, 4266.79487187, 4339.23076944, 4129.10256383,0
4196.41025628, 4371.92307720, 4343.46153867, 4397.82051310, 4379.87179515, 4381.28205156, 4304.10256425, 4249.87179488, 4114.23076896, 4362.56410278, 4288.58974366, 4267.69230777, 4337.82051303, 4128.71794844,0
4204.61538455, 4376.53846182, 4347.43589765, 4402.05128240, 4381.66666695, 4384.87179515, 4305.12820527, 4247.30769231, 4115.25640998, 4365.51282079, 4289.23076930, 4276.02564110, 4337.56410278, 4132.82051255,0
4198.97435884, 4378.46153874, 4345.76923098, 4401.15384651, 4382.43589772, 4390.00000028, 4315.89743604, 4259.23076923, 4122.30769203, 4375.00000028, 4293.84615392, 4279.48717956, 4336.15384637, 4131.41025614,0
4198.20512807, 4365.76923105, 4341.28205149, 4394.48717977, 4379.35897464, 4391.53846182, 4319.10256425, 4276.02564110, 4128.20512793, 4379.74359003, 4297.82051289, 4284.23076930, 4338.97435919, 4130.89743562,0
4205.25641019, 4365.76923105, 4342.69230790, 4386.28205156, 4373.46153874, 4386.02564131, 4310.00000014, 4274.87179495, 4125.51282024, 4378.58974387, 4299.61538476, 4293.84615392, 4346.66666688, 4130.64102537,0
4207.17948711, 4373.71794900, 4343.84615406, 4387.43589772, 4367.94871823, 4378.46153874, 4302.05128219, 4264.87179488, 4119.61538434, 4376.28205156, 4298.20512828, 4298.97435905, 4348.46153867, 4129.99999973,0
4208.07692301, 4364.10256431, 4337.30769252, 4389.23076951, 4368.33333362, 4373.58974387, 4303.33333348, 4267.69230777, 4120.12820485, 4372.43589772, 4297.17948725, 4299.10256418, 4339.74358996, 4131.79487152,0
4201.15384609, 4357.30769252, 4336.02564124, 4389.74359003, 4377.56410285, 4377.05128233, 4303.46153860, 4272.05128212, 4123.84615357, 4371.53846182, 4301.15384630, 4304.10256425, 4338.84615406, 4128.84615357,0
4202.17948711, 4362.82051303, 4342.56410278, 4387.56410285, 4380.64102592, 4380.76923105, 4301.15384630, 4261.02564103, 4121.92307665, 4366.92307720, 4300.12820527, 4306.41025655, 4341.66666688, 4126.79487152,0
4213.71794865, 4371.28205156, 4346.53846175, 4387.82051310, 4379.23076951, 4384.23076951, 4308.33333348, 4257.69230770, 4120.51282024, 4363.58974380, 4298.97435905, 4310.64102578, 4337.43589765, 4127.05128178,0
4213.20512814, 4381.41025669, 4348.84615406, 4396.92307720, 4385.25641054, 4387.82051310, 4316.02564117, 4269.87179495, 4124.10256383, 4368.46153874, 4305.12820527, 4327.30769245, 4337.30769252, 4126.28205101,0
4209.99999993, 4382.17948746, 4346.28205149, 4400.89743625, 4387.30769259, 4383.97435926, 4312.43589758, 4273.20512828, 4125.25640998, 4366.92307720, 4302.30769245, 4331.28205142, 4336.79487201, 4128.97435870,0
4208.84615378, 4373.84615413, 4338.84615406, 4398.33333368, 4384.74359003, 4387.43589772, 4313.71794886, 4272.30769238, 4126.53846126, 4365.89743618, 4296.28205136, 4324.48717963, 4336.02564124, 4130.64102537,0
4211.02564096, 4370.76923105, 4338.33333355, 4391.15384644, 4382.94871823, 4393.33333362, 4319.61538476, 4273.71794879, 4126.41025614, 4367.56410285, 4296.92307700, 4330.25641040, 4334.23076944, 4127.94871767,0
4214.87179481, 4372.56410285, 4341.41025662, 4385.38461567, 4377.82051310, 4383.07692336, 4313.20512835, 4263.58974359, 4122.43589716, 4358.58974380, 4300.89743604, 4342.69230790, 4329.48717963, 4124.48717921,0
4208.20512814, 4364.74358996, 4335.51282073, 4384.61538490, 4367.05128233, 4366.53846182, 4300.64102578, 4250.12820513, 4118.46153819, 4348.84615406, 4304.23076937, 4345.00000021, 4325.64102578, 4126.02564075,0
4202.05128199, 4346.28205149, 4325.89743604, 4379.48717977, 4354.10256431, 4362.69230790, 4295.76923084, 4253.46153847, 4119.61538434, 4350.51282073, 4293.46153853, 4337.43589765, 4321.53846168, 4131.41025614,0
4202.43589737, 4341.02564124, 4329.61538476, 4376.41025669, 4359.35897457, 4372.05128233, 4304.61538476, 4269.10256418, 4129.48717921, 4361.92307714, 4288.71794879, 4343.97435919, 4325.25641040, 4127.82051255,0
4208.84615378, 4352.82051303, 4340.00000021, 4378.58974387, 4372.17948746, 4377.30769259, 4314.10256425, 4275.89743597, 4136.15384595, 4368.20512849, 4303.33333348, 4359.74358996, 4332.43589765, 4122.43589716,0
4214.23076917, 4367.69230797, 4338.33333355, 4379.23076951, 4372.56410285, 4376.66666695, 4312.94871809, 4271.02564110, 4129.10256383, 4362.05128226, 4305.89743604, 4365.38461567, 4331.79487194, 4126.15384588,0
4216.53846147, 4381.79487208, 4335.00000021, 4384.35897464, 4378.46153874, 4383.07692336, 4315.00000014, 4269.35897443, 4124.23076896, 4354.23076944, 4291.28205136, 4366.79487208, 4324.87179501, 4128.97435870,0
4221.28205122, 4378.07692336, 4336.79487201, 4391.92307720, 4387.05128233, 4385.64102592, 4317.82051296, 4269.87179495, 4125.25640998, 4349.87179508, 4283.58974366, 4367.05128233, 4317.05128219, 4128.58974332,0
4222.17948711, 4370.25641054, 4343.97435919, 4402.94871830, 4391.02564131, 4386.79487208, 4320.76923091, 4272.94871802, 4130.25640998, 4355.12820534, 4298.20512828, 4379.23076951, 4324.48717963, 4126.92307665,0
4230.12820506, 4386.53846182, 4355.76923098, 4415.64102599, 4404.87179522, 4405.12820548, 4335.25641047, 4281.28205136, 4138.84615364, 4371.41025669, 4318.84615399, 4400.25641061, 4346.66666688, 4128.97435870,0
4243.58974359, 4405.12820548, 4359.74358996, 4415.12820548, 4413.97435933, 4420.64102599, 4348.46153867, 4285.00000007, 4140.12820492, 4377.05128233, 4318.97435912, 4408.58974394, 4352.56410278, 4130.64102537,0
4237.17948718, 4401.41025676, 4355.00000021, 4409.48717984, 4403.07692343, 4410.38461574, 4344.74358996, 4283.33333341, 4135.51282031, 4369.74359003, 4308.46153860, 4406.02564138, 4338.20512842, 4127.56410229,0
4229.61538455, 4382.69230797, 4347.56410278, 4405.64102599, 4388.07692336, 4389.23076951, 4331.53846168, 4274.23076930, 4130.51282024, 4360.76923098, 4300.12820527, 4399.35897471, 4327.82051296, 4129.35897408,0
4233.46153840, 4376.28205156, 4345.12820534, 4404.87179522, 4388.58974387, 4390.89743618, 4330.64102578, 4270.51282059, 4131.15384588, 4358.20512842, 4302.05128219, 4402.94871830, 4335.64102585, 4128.97435870,0
4234.74358975, 4375.12820541, 4346.41025662, 4405.89743625, 4393.84615413, 4403.58974394, 4338.07692329, 4281.15384623, 4133.20512793, 4360.64102585, 4306.28205142, 4416.79487215, 4345.76923098, 4127.43589716,0
4232.82051275, 4363.58974380, 4340.64102585, 4392.69230797, 4386.92307720, 4398.46153881, 4337.94871816, 4283.46153853, 4134.23076896, 4363.97435919, 4301.53846168, 4417.56410292, 4339.87179508, 4129.35897408,0
4229.48717942, 4366.02564131, 4334.35897457, 4373.33333362, 4383.84615413, 4396.15384644, 4337.56410278, 4280.00000007, 4140.76923056, 4372.56410285, 4304.61538476, 4413.33333368, 4342.30769252, 4127.82051255,0
4237.30769231, 4374.87179515, 4339.87179508, 4374.23076951, 4389.74359003, 4405.25641061, 4343.33333355, 4287.17948725, 4144.99999980, 4373.84615413, 4312.30769245, 4421.66666702, 4353.33333355, 4127.94871767,0
4252.69230770, 4377.30769259, 4357.94871816, 4401.15384651, 4398.07692343, 4412.17948753, 4352.30769252, 4299.48717963, 4146.41025621, 4374.61538490, 4313.33333348, 4441.41025683, 4355.89743611, 4128.20512793,0
4265.51282052, 4393.33333362, 4377.94871823, 4423.20512856, 4405.25641061, 4421.53846189, 4360.76923098, 4310.00000014, 4152.30769210, 4394.87179515, 4327.94871809, 4466.02564152, 4368.71794900, 4129.74358947,0
4275.89743597, 4403.58974394, 4382.82051310, 4416.79487215, 4401.28205163, 4423.07692343, 4358.84615406, 4308.97435912, 4153.33333313, 4404.87179522, 4344.48717970, 4474.61538511, 4380.76923105, 4132.69230742,0
4269.87179495, 4394.87179515, 4377.94871823, 4410.00000035, 4399.74359009, 4415.89743625, 4347.05128226, 4300.76923091, 4149.99999980, 4396.92307720, 4343.20512842, 4469.61538511, 4377.69230797, 4128.20512793,0
4270.00000007, 4394.87179515, 4377.69230797, 4416.92307727, 4407.43589779, 4417.56410292, 4342.69230790, 4304.74358989, 4153.33333313, 4397.82051310, 4341.92307714, 4473.20512870, 4377.56410285, 4129.48717921,0
4276.53846161, 4402.30769266, 4374.87179515, 4417.69230804, 4412.56410292, 4423.07692343, 4347.43589765, 4309.74358989, 4154.35897415, 4400.00000035, 4346.02564124, 4473.97435946, 4382.30769259, 4134.99999973,0
4266.92307700, 4396.66666695, 4365.38461567, 4412.17948753, 4410.12820548, 4418.97435933, 4345.12820534, 4295.00000007, 4144.48717928, 4384.87179515, 4339.74358996, 4461.92307734, 4372.56410285, 4132.69230742,0
4261.15384616, 4384.23076951, 4357.94871816, 4411.66666702, 4399.48717984, 4410.76923112, 4335.64102585, 4283.84615392, 4139.48717928, 4367.30769259, 4329.10256425, 4452.56410298, 4358.20512842, 4132.69230742,0
4258.58974359, 4382.30769259, 4357.17948739, 4419.74359009, 4396.02564131, 4414.10256445, 4338.07692329, 4293.46153853, 4147.69230749, 4373.97435926, 4331.41025655, 4456.66666709, 4365.76923105, 4132.17948691,0
4255.38461539, 4380.25641054, 4355.12820534, 4416.15384651, 4395.89743618, 4415.38461574, 4342.82051303, 4298.97435905, 4147.17948697, 4383.33333362, 4331.66666681, 4454.23076965, 4369.10256438, 4132.05128178,0
4253.20512821, 4368.71794900, 4346.79487201, 4402.69230804, 4388.58974387, 4402.69230804, 4336.53846175, 4292.05128212, 4137.05128185, 4372.05128233, 4322.69230784, 4438.84615427, 4354.10256431, 4134.99999973,0
4253.46153847, 4370.25641054, 4350.76923098, 4409.10256445, 4391.41025669, 4399.23076958, 4333.97435919, 4292.43589751, 4143.20512800, 4373.58974387, 4326.41025655, 4445.12820555, 4360.76923098, 4131.66666639,0
4268.71794879, 4388.33333362, 4367.94871823, 4424.23076958, 4402.82051317, 4408.20512856, 4337.43589765, 4299.23076930, 4153.58974339, 4393.33333362, 4336.79487201, 4467.05128254, 4383.84615413, 4129.48717921,0
4276.15384623, 4402.69230804, 4374.23076951, 4430.76923119, 4405.64102599, 4415.25641061, 4346.02564124, 4303.46153860, 4150.51282031, 4397.17948746, 4340.12820534, 4472.17948767, 4386.66666695, 4128.33333306,0
4268.58974366, 4401.02564138, 4366.79487208, 4429.35897471, 4405.25641061, 4417.05128240, 4358.58974380, 4308.97435912, 4150.76923056, 4385.76923105, 4339.74358996, 4462.05128247, 4375.51282079, 4126.53846126,0
4268.07692315, 4394.35897464, 4364.48717970, 4421.92307727, 4411.15384651, 4417.30769266, 4360.89743611, 4311.92307707, 4156.15384595, 4383.46153874, 4337.43589765, 4458.84615427, 4375.12820541, 4127.30769203,0
4267.43589751, 4397.94871830, 4367.30769259, 4422.94871830, 4417.43589779, 4424.35897471, 4356.15384637, 4309.35897450, 4153.97435877, 4386.79487208, 4331.92307707, 4458.71794914, 4377.69230797, 4126.92307665,0
4264.23076923, 4399.61538497, 4362.56410278, 4434.74359016, 4412.56410292, 4426.79487215, 4345.64102585, 4301.41025655, 4148.58974339, 4376.28205156, 4327.17948732, 4447.82051324, 4364.87179508, 4129.99999973,0
4259.10256411, 4382.82051310, 4350.38461560, 4420.38461574, 4398.58974394, 4416.53846189, 4332.43589765, 4293.97435905, 4147.82051262, 4363.07692329, 4321.53846168, 4434.23076965, 4350.64102585, 4129.74358947,0
4258.71794872, 4362.56410278, 4340.00000021, 4378.20512849, 4387.43589772, 4411.53846189, 4336.15384637, 4296.28205136, 4150.25641005, 4367.05128233, 4311.41025655, 4426.66666702, 4355.64102585, 4124.99999973,0
4268.58974366, 4370.64102592, 4344.61538483, 4380.89743618, 4388.33333362, 4413.46153881, 4344.74358996, 4300.89743604, 4154.10256390, 4376.79487208, 4315.00000014, 4433.46153888, 4371.53846182, 4127.94871767,0
4269.61538469, 4395.25641054, 4363.97435919, 4432.30769273, 4401.15384651, 4413.07692343, 4341.15384637, 4303.07692322, 4156.41025621, 4382.82051310, 4336.02564124, 4455.89743632, 4385.25641054, 4130.89743562,0
4264.87179488, 4399.87179522, 4371.02564131, 4451.79487222, 4405.12820548, 4408.58974394, 4336.92307714, 4295.38461546, 4151.79487159, 4377.17948746, 4336.79487201, 4459.87179529, 4379.48717977, 4129.74358947,0
4270.89743597, 4397.82051310, 4370.25641054, 4445.76923119, 4403.97435933, 4412.82051317, 4341.41025662, 4292.05128212, 4151.92307672, 4368.33333362, 4323.58974373, 4452.30769273, 4365.51282079, 4128.71794844,0
4282.56410264, 4410.38461574, 4386.28205156, 4462.69230811, 4412.17948753, 4425.25641061, 4345.25641047, 4304.35897450, 4160.51282031, 4377.17948746, 4330.00000014, 4468.84615434, 4372.94871823, 4127.05128178,0
4281.15384623, 4412.94871830, 4389.35897464, 4465.12820562, 4412.17948753, 4422.43589779, 4339.74358996, 4306.28205142, 4158.71794851, 4378.71794900, 4332.17948732, 4473.71794921, 4379.48717977, 4125.51282024,0
4268.20512828, 4406.02564138, 4374.74359003, 4447.56410298, 4408.07692343, 4418.07692343, 4341.02564124, 4299.23076930, 4152.30769210, 4366.41025669, 4321.53846168, 4456.02564145, 4371.79487208, 4124.10256383,0
4277.43589751, 4413.33333368, 4380.25641054, 4453.84615427, 4416.02564138, 4426.53846189, 4355.12820534, 4303.84615399, 4156.79487159, 4370.25641054, 4327.17948732, 4461.66666709, 4377.17948746, 4123.58974332,0
4291.15384623, 4419.23076958, 4386.53846182, 4453.97435940, 4417.82051317, 4427.56410292, 4359.48717970, 4313.97435912, 4164.23076903, 4384.48717977, 4336.66666688, 4472.56410305, 4390.89743618, 4123.07692280,0
4276.53846161, 4403.71794907, 4368.07692336, 4432.43589786, 4401.28205163, 4411.28205163, 4341.92307714, 4305.76923091, 4160.25641005, 4378.97435926, 4326.02564117, 4449.87179529, 4384.87179515, 4126.92307665,0
4269.61538469, 4389.61538490, 4353.46153867, 4431.28205170, 4392.30769259, 4400.89743625, 4330.89743604, 4294.48717956, 4154.74358954, 4367.56410285, 4313.97435912, 4426.79487215, 4366.53846182, 4131.15384588,0
4279.23076930, 4399.74359009, 4366.28205156, 4451.66666709, 4410.64102599, 4420.38461574, 4351.41025662, 4312.30769245, 4165.64102544, 4383.71794900, 4330.76923091, 4445.89743632, 4377.69230797, 4126.53846126,0
4283.07692315, 4408.58974394, 4378.07692336, 4452.56410298, 4422.56410292, 4437.05128247, 4361.28205149, 4323.46153860, 4169.99999986, 4397.30769259, 4347.69230790, 4467.05128254, 4403.20512856, 4127.17948691,0
4280.12820520, 4398.84615420, 4370.38461567, 4436.41025683, 4408.46153881, 4419.61538497, 4340.89743611, 4303.97435912, 4157.30769210, 4384.87179515, 4338.07692329, 4456.15384657, 4399.10256445, 4132.43589716,0
4276.79487187, 4396.02564131, 4366.15384644, 4437.94871837, 4403.58974394, 4404.10256445, 4330.12820527, 4299.23076930, 4157.82051262, 4381.53846182, 4333.71794893, 4449.35897478, 4385.12820541, 4129.87179460,0
4279.61538469, 4401.92307727, 4367.30769259, 4442.05128247, 4408.71794907, 4410.00000035, 4337.17948739, 4315.64102578, 4166.79487159, 4385.64102592, 4333.20512842, 4449.23076965, 4382.43589772, 4128.46153819,0
4278.58974366, 4396.92307720, 4359.74358996, 4433.46153888, 4401.66666702, 4412.17948753, 4336.28205149, 4309.35897450, 4160.38461518, 4371.53846182, 4318.97435912, 4441.79487222, 4376.41025669, 4129.23076896,0
4277.30769238, 4386.15384644, 4351.41025662, 4422.30769266, 4391.15384644, 4399.10256445, 4323.97435912, 4291.66666674, 4152.05128185, 4355.89743611, 4311.28205142, 4439.23076965, 4367.43589772, 4129.74358947,0
4280.89743597, 4387.17948746, 4350.38461560, 4413.71794907, 4386.53846182, 4388.84615413, 4316.92307707, 4295.38461546, 4157.69230749, 4357.69230790, 4312.30769245, 4437.82051324, 4365.00000021, 4131.15384588,0
4275.51282059, 4394.48717977, 4354.61538483, 4422.17948753, 4389.35897464, 4396.79487208, 4325.00000014, 4304.48717963, 4164.87179467, 4367.43589772, 4314.10256425, 4439.48717991, 4366.41025669, 4129.23076896,0
4278.20512828, 4397.43589772, 4361.92307714, 4438.58974401, 4395.51282079, 4409.23076958, 4342.17948739, 4304.87179501, 4163.58974339, 4368.58974387, 4324.10256425, 4452.56410298, 4365.51282079, 4130.76923050,0
4291.28205136, 4407.69230804, 4368.84615413, 4442.82051324, 4405.89743625, 4421.41025676, 4354.74358996, 4310.51282066, 4164.35897415, 4371.02564131, 4342.94871816, 4470.89743639, 4376.79487208, 4131.66666639,0
4291.41025648, 4418.97435933, 4372.56410285, 4438.07692350, 4414.23076958, 4430.25641061, 4359.23076944, 4323.84615399, 4170.89743576, 4384.48717977, 4351.79487201, 4479.87179536, 4398.20512856, 4130.25640998,0
4284.23076930, 4401.15384651, 4366.53846182, 4431.41025683, 4403.46153881, 4422.30769266, 4357.17948739, 4323.97435912, 4169.35897422, 4386.53846182, 4342.30769252, 4473.71794921, 4398.20512856, 4132.43589716,0
4279.61538469, 4380.00000028, 4357.94871816, 4429.10256445, 4391.15384644, 4413.46153881, 4350.89743611, 4313.46153860, 4166.15384595, 4380.00000028, 4338.71794893, 4470.00000049, 4386.41025669, 4132.05128178,0
4282.82051289, 4391.02564131, 4360.76923098, 4427.17948753, 4394.35897464, 4413.07692343, 4346.53846175, 4311.15384630, 4170.12820499, 4382.43589772, 4344.48717970, 4474.10256459, 4387.30769259, 4132.05128178,0
4287.56410264, 4408.20512856, 4368.07692336, 4427.17948753, 4398.33333368, 4408.58974394, 4344.74358996, 4313.71794886, 4170.76923063, 4383.58974387, 4342.82051303, 4479.61538511, 4393.84615413, 4133.07692280,0
4288.71794879, 4404.23076958, 4370.25641054, 4433.33333375, 4394.74359003, 4403.58974394, 4343.46153867, 4313.58974373, 4167.05128185, 4380.51282079, 4340.89743611, 4488.97435946, 4399.48717984, 4132.82051255,0
4292.94871802, 4394.74359003, 4370.25641054, 4431.28205170, 4397.30769259, 4407.43589779, 4343.20512842, 4314.61538476, 4167.05128185, 4379.10256438, 4340.64102585, 4497.05128261, 4398.84615420, 4132.56410229,0
4285.64102571, 4396.79487208, 4368.07692336, 4422.94871830, 4406.41025676, 4410.64102599, 4339.48717970, 4316.41025655, 4166.92307672, 4375.64102592, 4336.92307714, 4493.71794921, 4389.23076951, 4130.25640998,0
4278.84615392, 4394.23076951, 4355.51282073, 4418.97435933, 4395.38461567, 4394.48717977, 4323.71794886, 4310.51282066, 4162.05128185, 4363.97435919, 4332.17948732, 4481.41025690, 4377.56410285, 4131.15384588,0
4285.38461546, 4387.69230797, 4347.94871816, 4423.97435933, 4381.79487208, 4378.71794900, 4314.23076937, 4303.33333348, 4163.84615364, 4362.05128226, 4335.89743611, 4484.87179536, 4378.07692336, 4130.25640998,0
4285.89743597, 4394.87179515, 4359.35897457, 4431.53846196, 4393.07692336, 4390.12820541, 4328.46153860, 4305.51282066, 4168.71794858, 4371.28205156, 4342.05128226, 4502.94871851, 4387.69230797, 4124.87179460,0
4283.97435905, 4397.43589772, 4364.74358996, 4425.89743625, 4397.69230797, 4397.94871830, 4337.17948739, 4306.92307707, 4165.76923056, 4363.58974380, 4337.69230790, 4501.53846210, 4385.12820541, 4126.66666639,0
4281.41025648, 4387.05128233, 4354.48717970, 4422.05128240, 4386.66666695, 4384.48717977, 4327.56410271, 4304.48717963, 4163.07692287, 4354.10256431, 4333.20512842, 4492.69230818, 4375.89743618, 4127.82051255,0
4275.89743597, 4377.94871823, 4347.94871816, 4422.94871830, 4380.76923105, 4379.61538490, 4319.35897450, 4298.33333341, 4160.76923056, 4353.33333355, 4326.92307707, 4494.74359023, 4366.41025669, 4126.53846126,0
4274.23076930, 4377.82051310, 4346.53846175, 4413.20512856, 4382.56410285, 4387.30769259, 4320.25641040, 4288.46153853, 4155.89743569, 4343.33333355, 4316.28205142, 4493.07692357, 4358.33333355, 4131.79487152,0
4276.28205136, 4385.89743618, 4344.48717970, 4410.38461574, 4389.10256438, 4389.87179515, 4325.00000014, 4288.20512828, 4155.89743569, 4334.48717970, 4312.69230784, 4490.00000049, 4357.17948739, 4133.07692280,0
4277.94871802, 4383.84615413, 4339.35897457, 4416.41025676, 4383.71794900, 4380.00000028, 4318.84615399, 4288.33333341, 4154.99999980, 4333.58974380, 4309.48717963, 4488.07692357, 4351.28205149, 4128.97435870,0
4273.07692315, 4373.84615413, 4335.38461560, 4422.82051317, 4374.61538490, 4377.30769259, 4312.82051296, 4288.84615392, 4157.56410236, 4341.02564124, 4314.23076937, 4488.07692357, 4347.82051303, 4125.25640998,0
4275.64102571, 4378.58974387, 4342.82051303, 4429.87179522, 4384.10256438, 4388.33333362, 4324.87179501, 4302.69230784, 4169.10256397, 4358.07692329, 4332.05128219, 4501.15384671, 4364.61538483, 4126.66666639,0
4286.28205136, 4393.58974387, 4355.25641047, 4427.69230804, 4396.53846182, 4392.30769259, 4330.38461553, 4307.82051296, 4170.64102551, 4364.10256431, 4338.71794893, 4515.51282107, 4381.28205156, 4129.74358947,0
4285.51282059, 4399.61538497, 4360.76923098, 4428.33333368, 4396.92307720, 4390.00000028, 4320.51282066, 4302.69230784, 4166.02564082, 4357.17948739, 4336.02564124, 4520.76923133, 4380.64102592, 4126.53846126,0
4285.64102571, 4391.28205156, 4359.74358996, 4435.64102606, 4390.89743618, 4386.41025669, 4317.43589758, 4303.84615399, 4167.69230749, 4353.97435919, 4336.02564124, 4521.28205184, 4374.10256438, 4125.25640998,0
4286.28205136, 4383.58974387, 4353.84615406, 4426.53846189, 4387.05128233, 4385.00000028, 4323.07692322, 4303.20512835, 4168.71794858, 4354.10256431, 4334.61538483, 4521.79487235, 4371.02564131, 4128.07692280,0
4284.61538469, 4391.41025669, 4353.46153867, 4423.84615420, 4391.92307720, 4393.97435926, 4328.20512835, 4298.07692315, 4167.69230749, 4350.89743611, 4334.87179508, 4523.97435953, 4371.15384644, 4129.48717921,0
4292.17948725, 4392.17948746, 4358.46153867, 4431.41025683, 4395.89743618, 4402.94871830, 4336.66666688, 4303.20512835, 4170.76923063, 4350.76923098, 4330.00000014, 4526.28205184, 4371.41025669, 4127.05128178,0
4296.02564110, 4377.56410285, 4354.48717970, 4408.84615420, 4391.28205156, 4404.87179522, 4342.94871816, 4315.64102578, 4176.66666653, 4360.25641047, 4315.76923091, 4528.20512876, 4375.25641054, 4123.71794844,0
4291.92307700, 4371.41025669, 4347.43589765, 4391.02564131, 4383.20512849, 4395.76923105, 4325.89743604, 4311.66666681, 4172.82051269, 4361.66666688, 4314.10256425, 4526.66666723, 4376.66666695, 4127.82051255,0
4278.58974366, 4360.25641047, 4317.82051296, 4366.02564131, 4375.64102592, 4373.84615413, 4324.48717963, 4298.33333341, 4173.20512807, 4345.25641047, 4312.56410271, 4502.30769287, 4353.46153867, 4131.92307665,0
4286.02564110, 4364.48717970, 4327.82051296, 4386.15384644, 4378.33333362, 4373.84615413, 4324.61538476, 4302.30769245, 4175.89743576, 4356.28205149, 4317.05128219, 4517.05128261, 4369.61538490, 4133.20512793,0
4295.51282059, 4370.64102592, 4336.28205149, 4381.92307720, 4377.69230797, 4381.28205156, 4341.28205149, 4316.15384630, 4180.89743576, 4370.76923105, 4325.38461553, 4527.30769287, 4379.87179515, 4131.15384588,0
4299.74358989, 4380.76923105, 4346.02564124, 4388.20512849, 4378.33333362, 4391.53846182, 4356.28205149, 4333.71794893, 4185.51282038, 4379.48717977, 4341.28205149, 4538.71794935, 4380.51282079, 4133.20512793,0
4294.61538469, 4375.64102592, 4342.17948739, 4387.94871823, 4371.79487208, 4376.79487208, 4342.82051303, 4320.12820527, 4177.69230756, 4367.69230797, 4340.12820534, 4539.74359037, 4371.53846182, 4136.79487159,0
4284.23076930, 4366.15384644, 4331.53846168, 4380.00000028, 4365.12820541, 4358.07692329, 4325.38461553, 4294.87179495, 4169.10256397, 4353.58974380, 4332.82051303, 4535.00000063, 4366.15384644, 4133.58974332,0
4291.79487187, 4376.02564131, 4341.41025662, 4391.66666695, 4374.23076951, 4369.61538490, 4340.51282073, 4304.48717963, 4174.87179474, 4361.53846175, 4340.51282073, 4542.69230832, 4372.43589772, 4133.71794844,0
4302.82051296, 4393.07692336, 4357.82051303, 4408.71794907, 4391.79487208, 4390.25641054, 4363.33333355, 4323.71794886, 4183.84615371, 4374.74359003, 4349.23076944, 4556.41025704, 4384.10256438, 4133.20512793,0
4299.87179501, 4389.74359003, 4353.71794893, 4405.51282086, 4394.23076951, 4386.79487208, 4360.25641047, 4314.23076937, 4180.76923063, 4370.25641054, 4347.17948739, 4558.97435960, 4384.61538490, 4129.87179460,0
4296.66666674, 4373.20512849, 4342.56410278, 4393.33333362, 4382.69230797, 4374.10256438, 4352.82051303, 4303.58974373, 4173.97435884, 4357.43589765, 4341.79487201, 4555.25641089, 4371.41025669, 4130.64102537,0
4292.17948725, 4371.41025669, 4341.02564124, 4388.84615413, 4380.38461567, 4377.43589772, 4359.35897457, 4313.20512835, 4176.15384602, 4361.02564124, 4340.89743611, 4558.20512883, 4369.35897464, 4131.02564075,0
4289.23076930, 4371.41025669, 4334.87179508, 4377.82051310, 4374.23076951, 4375.76923105, 4355.38461560, 4319.10256425, 4180.51282038, 4366.41025669, 4336.02564124, 4556.53846217, 4373.84615413, 4129.74358947,0
4288.20512828, 4360.51282073, 4322.94871809, 4365.76923105, 4361.53846175, 4365.76923105, 4342.82051303, 4315.51282066, 4179.87179474, 4359.61538483, 4326.53846168, 4551.28205191, 4365.38461567, 4128.33333306,0
4289.74358982, 4361.02564124, 4324.10256425, 4373.07692336, 4369.48717977, 4373.46153874, 4348.84615406, 4316.66666681, 4176.66666653, 4355.76923098, 4323.07692322, 4557.17948781, 4352.69230790, 4126.53846126,0
4294.23076930, 4362.17948739, 4322.30769245, 4377.69230797, 4376.79487208, 4379.61538490, 4354.23076944, 4313.97435912, 4174.87179474, 4350.64102585, 4322.05128219, 4561.28205191, 4346.66666688, 4126.53846126,0
4294.23076930, 4362.17948739, 4322.30769245, 4377.69230797, 4376.79487208, 4379.61538490, 4354.23076944, 4313.97435912, 4174.87179474, 4350.64102585, 4322.05128219, 4561.28205191, 4346.66666688, 4126.53846126,0
4286.41025648, 4350.12820534, 4311.15384630, 4360.12820534, 4363.07692329, 4365.51282079, 4337.05128226, 4303.07692322, 4173.58974345, 4342.43589765, 4320.76923091, 4560.25641089, 4348.46153867, 4129.35897408,0
4282.94871802, 4349.35897457, 4309.61538476, 4349.35897457, 4355.38461560, 4356.53846175, 4324.61538476, 4299.87179501, 4172.17948704, 4341.92307714, 4322.56410271, 4565.38461608, 4350.38461560, 4133.84615357,0
4291.28205136, 4367.30769259, 4320.64102578, 4368.20512849, 4370.38461567, 4370.00000028, 4336.15384637, 4313.46153860, 4178.71794858, 4356.92307714, 4329.61538476, 4582.43589813, 4361.15384637, 4130.76923050,0
4290.38461546, 4369.48717977, 4323.33333348, 4372.05128233, 4374.74359003, 4373.58974387, 4341.02564124, 4316.28205142, 4182.17948704, 4366.15384644, 4330.12820527, 4590.89743660, 4371.15384644, 4124.10256383,0
4283.33333341, 4345.38461560, 4304.61538476, 4343.07692329, 4354.74358996, 4355.64102585, 4325.12820527, 4294.61538469, 4172.05128192, 4349.23076944, 4322.17948732, 4576.92307762, 4358.20512842, 4129.48717921,0
4280.00000007, 4338.20512842, 4299.35897443, 4343.20512842, 4353.20512842, 4358.46153867, 4329.61538476, 4293.71794879, 4173.58974345, 4344.10256431, 4328.71794886, 4580.89743660, 4351.53846175, 4132.17948691,0
4287.82051289, 4355.38461560, 4318.20512835, 4370.51282079, 4371.92307720, 4376.15384644, 4347.43589765, 4316.79487194, 4187.94871781, 4361.92307714, 4343.33333355, 4610.38461615, 4366.02564131, 4126.79487152,0
4295.64102571, 4360.76923098, 4325.25641040, 4371.41025669, 4371.41025669, 4374.35897464, 4340.64102585, 4320.38461553, 4186.02564089, 4364.10256431, 4342.82051303, 4622.43589820, 4368.71794900, 4127.17948691,0
4288.33333341, 4353.71794893, 4318.84615399, 4362.17948739, 4360.25641047, 4369.23076951, 4328.46153860, 4310.00000014, 4178.71794858, 4353.46153867, 4335.64102585, 4620.25641102, 4365.00000021, 4127.30769203,0
4284.61538469, 4348.46153867, 4312.56410271, 4353.84615406, 4358.84615406, 4370.12820541, 4329.10256425, 4309.35897450, 4181.28205115, 4350.76923098, 4329.48717963, 4620.38461615, 4365.64102592, 4127.17948691,0
4277.82051289, 4340.76923098, 4302.17948732, 4334.35897457, 4356.02564124, 4366.53846182, 4329.48717963, 4311.92307707, 4183.33333320, 4348.07692329, 4324.87179501, 4615.12820590, 4352.17948739, 4127.82051255,0
4265.51282052, 4326.66666681, 4294.10256418, 4328.20512835, 4339.61538483, 4359.48717970, 4324.87179501, 4307.30769245, 4180.51282038, 4337.94871816, 4322.94871809, 4608.46153923, 4330.25641040, 4129.35897408,0
4273.84615392, 4326.28205142, 4303.58974373, 4345.25641047, 4330.76923091, 4355.12820534, 4319.35897450, 4303.84615399, 4180.25641012, 4339.10256431, 4325.25641040, 4617.17948795, 4335.64102585, 4130.12820485,0
4286.53846161, 4342.82051303, 4314.87179501, 4354.10256431, 4344.23076944, 4356.53846175, 4319.23076937, 4309.10256425, 4182.82051269, 4356.41025662, 4334.23076944, 4635.89743674, 4364.23076944, 4126.15384588,0
4283.71794879, 4342.17948739, 4307.43589758, 4337.56410278, 4349.74358996, 4352.94871816, 4320.25641040, 4308.20512835, 4178.20512807, 4356.28205149, 4333.84615406, 4634.61538545, 4364.48717970, 4127.05128178,0
4272.30769238, 4327.17948732, 4292.82051289, 4325.38461553, 4338.97435919, 4345.51282073, 4314.87179501, 4293.33333341, 4170.64102551, 4336.92307714, 4320.89743604, 4619.23077000, 4340.00000021, 4128.46153819,0
4269.74358982, 4328.20512835, 4290.51282059, 4332.94871816, 4338.58974380, 4347.05128226, 4312.69230784, 4282.94871802, 4168.07692287, 4326.02564117, 4310.51282066, 4612.30769308, 4332.43589765, 4126.53846126,0
4280.64102571, 4339.23076944, 4296.53846161, 4339.35897457, 4350.00000021, 4355.38461560, 4320.12820527, 4291.28205136, 4173.20512807, 4328.46153860, 4310.38461553, 4616.92307769, 4336.53846175, 4130.25640998,0
4283.71794879, 4346.79487201, 4301.02564117, 4341.66666688, 4355.89743611, 4361.28205149, 4326.41025655, 4305.51282066, 4182.43589730, 4338.71794893, 4323.33333348, 4626.79487256, 4341.79487201, 4132.05128178,0
4286.02564110, 4346.41025662, 4308.07692322, 4345.12820534, 4348.97435919, 4357.82051303, 4324.48717963, 4304.87179501, 4182.69230756, 4344.35897457, 4334.74358996, 4631.53846238, 4351.15384637, 4130.64102537,0
4291.02564110, 4342.05128226, 4315.76923091, 4348.07692329, 4343.97435919, 4352.43589765, 4322.30769245, 4304.74358989, 4181.41025628, 4344.87179508, 4339.23076944, 4633.71794956, 4360.12820534, 4129.74358947,0
4289.23076930, 4343.58974380, 4315.00000014, 4341.02564124, 4351.28205149, 4354.48717970, 4328.07692322, 4314.23076937, 4184.74358961, 4346.28205149, 4332.94871816, 4629.48718032, 4356.79487201, 4131.92307665,0
4291.15384623, 4348.97435919, 4316.02564117, 4333.20512842, 4357.69230790, 4361.92307714, 4339.35897457, 4311.66666681, 4182.30769217, 4345.38461560, 4327.30769245, 4618.20512897, 4356.02564124, 4135.64102544,0
4292.82051289, 4348.20512842, 4325.89743604, 4340.64102585, 4355.89743611, 4365.76923105, 4343.97435919, 4300.51282066, 4176.41025628, 4341.79487201, 4332.43589765, 4613.58974436, 4363.07692329, 4134.35897408,0
4287.43589751, 4333.84615406, 4315.64102578, 4333.97435919, 4347.82051303, 4359.35897457, 4333.07692329, 4299.74358989, 4176.28205115, 4334.74358996, 4311.41025655, 4595.25641102, 4345.64102585, 4133.97435870,0
4278.46153853, 4319.10256425, 4294.87179495, 4313.71794886, 4338.33333355, 4349.87179508, 4320.76923091, 4303.97435912, 4179.99999986, 4333.07692329, 4291.02564110, 4565.12820583, 4329.35897450, 4133.07692280,0
4272.05128212, 4320.64102578, 4306.53846168, 4323.58974373, 4337.17948739, 4349.35897457, 4316.15384630, 4302.69230784, 4182.05128192, 4341.15384637, 4322.69230784, 4562.05128275, 4347.82051303, 4127.82051255,0
4276.53846161, 4325.25641040, 4323.33333348, 4333.20512842, 4336.66666688, 4346.28205149, 4309.87179501, 4300.12820527, 4178.97435884, 4338.20512842, 4350.00000021, 4566.79487249, 4359.23076944, 4131.15384588,0
4281.15384623, 4326.28205142, 4319.87179501, 4314.48717963, 4335.25641047, 4338.84615406, 4303.97435912, 4300.38461553, 4178.58974345, 4335.76923098, 4344.61538483, 4556.15384678, 4355.76923098, 4133.33333306,0
4286.15384623, 4333.33333355, 4327.30769245, 4315.12820527, 4337.43589765, 4336.28205149, 4300.25641040, 4298.07692315, 4181.41025628, 4348.20512842, 4358.84615406, 4555.12820576, 4367.69230797, 4130.89743562,0
4288.58974366, 4341.15384637, 4338.33333355, 4327.82051296, 4340.89743611, 4338.71794893, 4299.35897443, 4292.69230777, 4182.05128192, 4350.38461560, 4371.15384644, 4550.00000063, 4374.23076951, 4135.12820485,0
4278.58974366, 4338.33333355, 4328.97435912, 4317.56410271, 4346.53846175, 4346.92307714, 4306.79487194, 4298.71794879, 4184.87179474, 4343.46153867, 4350.00000021, 4524.61538518, 4368.97435926, 4134.87179460,0
4279.10256418, 4330.25641040, 4320.12820527, 4307.94871809, 4343.58974380, 4345.00000021, 4308.97435912, 4304.35897450, 4184.48717935, 4338.97435919, 4340.00000021, 4501.79487235, 4368.33333362, 4129.23076896,0
4287.05128212, 4331.66666681, 4325.76923091, 4317.94871809, 4336.79487201, 4335.12820534, 4306.66666681, 4296.79487187, 4180.12820499, 4336.02564124, 4349.48717970, 4491.92307741, 4363.71794893, 4128.71794844,0
4282.94871802, 4330.76923091, 4326.79487194, 4314.10256425, 4335.89743611, 4339.23076944, 4310.12820527, 4297.43589751, 4182.94871781, 4338.20512842, 4348.33333355, 4477.17948767, 4357.05128226, 4131.41025614,0
4279.87179495, 4315.76923091, 4317.17948732, 4294.48717956, 4331.41025655, 4343.71794893, 4307.82051296, 4303.84615399, 4185.25641012, 4336.02564124, 4340.38461560, 4450.25641068, 4356.02564124, 4132.30769203,0
4278.58974366, 4309.74358989, 4308.97435912, 4291.53846161, 4327.43589758, 4336.53846175, 4302.17948732, 4297.30769238, 4180.12820499, 4328.84615399, 4339.35897457, 4427.05128240, 4358.33333355, 4128.97435870,0
4277.56410264, 4313.46153860, 4303.58974373, 4289.87179495, 4326.41025655, 4330.89743604, 4302.30769245, 4289.10256418, 4176.79487166, 4323.58974373, 4337.69230790, 4409.23076958, 4355.89743611, 4128.97435870,0
4279.87179495, 4315.76923091, 4304.74358989, 4288.84615392, 4328.58974373, 4334.23076944, 4299.35897443, 4291.15384623, 4180.38461525, 4321.02564117, 4333.97435919, 4393.46153874, 4348.97435919, 4131.66666639,0
4284.48717956, 4325.25641040, 4313.58974373, 4308.84615399, 4332.69230790, 4333.84615406, 4293.33333341, 4291.02564110, 4181.02564089, 4317.30769245, 4333.71794893, 4382.94871823, 4346.92307714, 4130.12820485,0
4289.35897443, 4337.43589765, 4317.17948732, 4322.56410271, 4335.38461560, 4327.05128219, 4297.17948725, 4286.79487187, 4177.82051269, 4318.84615399, 4330.38461553, 4371.28205156, 4350.76923098, 4127.82051255,0
4290.76923084, 4343.71794893, 4318.84615399, 4320.12820527, 4342.82051303, 4333.46153867, 4308.46153860, 4294.74358982, 4182.94871781, 4334.74358996, 4333.33333355, 4363.71794893, 4360.00000021, 4127.30769203,0
4295.38461546, 4339.61538483, 4325.00000014, 4323.20512835, 4347.94871816, 4342.82051303, 4309.87179501, 4300.51282066, 4192.43589730, 4345.00000021, 4344.48717970, 4356.92307714, 4366.41025669, 4130.38461511,0
4294.87179495, 4330.76923091, 4324.74358989, 4321.53846168, 4339.48717970, 4335.12820534, 4302.17948732, 4293.84615392, 4193.58974345, 4337.94871816, 4349.61538483, 4339.35897457, 4363.58974380, 4130.64102537,0
4283.33333341, 4325.38461553, 4312.56410271, 4299.48717963, 4328.07692322, 4322.94871809, 4296.41025648, 4289.35897443, 4186.92307679, 4327.30769245, 4340.00000021, 4315.89743604, 4352.69230790, 4125.64102537,0
4280.76923084, 4314.35897450, 4300.76923091, 4283.46153853, 4319.87179501, 4318.20512835, 4294.35897443, 4288.71794879, 4179.48717935, 4315.76923091, 4322.43589758, 4296.02564110, 4339.48717970, 4127.69230742,0
4284.23076930, 4301.02564117, 4300.38461553, 4293.07692315, 4315.64102578, 4322.43589758, 4302.82051296, 4293.97435905, 4180.25641012, 4314.10256425, 4320.25641040, 4285.25641033, 4338.97435919, 4129.23076896,0
4287.17948725, 4301.66666681, 4307.05128219, 4300.51282066, 4323.33333348, 4330.12820527, 4314.10256425, 4303.97435912, 4189.35897422, 4323.46153860, 4332.17948732, 4279.48717956, 4345.89743611, 4126.66666639,0
4292.94871802, 4310.89743604, 4315.25641040, 4295.89743597, 4335.25641047, 4333.84615406, 4313.71794886, 4304.48717963, 4193.07692294, 4326.41025655, 4338.58974380, 4273.84615392, 4348.97435919, 4128.07692280,0
4294.10256418, 4316.02564117, 4319.61538476, 4295.51282059, 4333.84615406, 4332.30769252, 4305.25641040, 4292.69230777, 4184.74358961, 4322.17948732, 4336.02564124, 4265.25641026, 4349.35897457, 4128.46153819,0
4294.48717956, 4315.38461553, 4311.41025655, 4293.46153853, 4324.87179501, 4327.82051296, 4297.94871802, 4282.94871802, 4178.33333320, 4312.17948732, 4325.51282066, 4249.23076923, 4339.48717970, 4129.48717921,0
4291.53846161, 4312.94871809, 4303.33333348, 4294.74358982, 4328.07692322, 4327.56410271, 4296.02564110, 4281.92307700, 4182.17948704, 4304.48717963, 4321.53846168, 4236.02564103, 4329.23076937, 4129.61538434,0
4285.38461546, 4303.20512835, 4298.71794879, 4292.94871802, 4328.07692322, 4325.38461553, 4292.43589751, 4282.30769238, 4184.48717935, 4303.07692322, 4310.51282066, 4215.38461532, 4319.10256425, 4127.30769203,0
4283.58974366, 4293.33333341, 4289.61538469, 4277.43589751, 4312.82051296, 4313.58974373, 4284.35897443, 4280.64102571, 4180.38461525, 4296.53846161, 4289.74358982, 4191.15384602, 4302.56410271, 4126.28205101,0
4288.84615392, 4303.07692322, 4294.61538469, 4280.12820520, 4309.48717963, 4307.69230784, 4279.10256418, 4280.12820520, 4181.02564089, 4298.71794879, 4306.66666681, 4199.99999986, 4313.46153860, 4126.79487152,0
4301.92307707, 4318.07692322, 4317.56410271, 4306.79487194, 4321.41025655, 4314.87179501, 4287.17948725, 4285.00000007, 4188.71794858, 4318.46153860, 4350.00000021, 4223.58974352, 4346.15384637, 4129.74358947,0
4299.10256418, 4317.30769245, 4324.74358989, 4312.17948732, 4329.10256425, 4324.61538476, 4304.61538476, 4295.38461546, 4195.38461525, 4330.64102578, 4355.51282073, 4219.87179481, 4349.48717970, 4130.89743562,0
4287.05128212, 4311.66666681, 4313.46153860, 4287.17948725, 4326.41025655, 4326.28205142, 4307.56410271, 4302.69230784, 4196.66666653, 4322.82051296, 4333.20512842, 4203.97435891, 4330.89743604, 4130.76923050,0
4292.94871802, 4311.02564117, 4311.41025655, 4282.30769238, 4323.20512835, 4323.46153860, 4301.28205142, 4297.82051289, 4191.92307679, 4315.00000014, 4328.71794886, 4201.92307686, 4327.56410271, 4132.17948691,0
4299.23076930, 4313.84615399, 4317.56410271, 4302.05128219, 4327.69230784, 4328.71794886, 4310.51282066, 4288.84615392, 4187.56410243, 4317.43589758, 4339.23076944, 4204.61538455, 4334.87179508, 4131.79487152,0
4296.79487187, 4307.43589758, 4310.64102578, 4291.66666674, 4321.15384630, 4326.02564117, 4315.38461553, 4284.48717956, 4185.38461525, 4313.58974373, 4338.71794893, 4194.61538448, 4327.43589758, 4135.25640998,0
4289.74358982, 4292.69230777, 4296.66666674, 4261.53846154, 4303.20512835, 4311.02564117, 4301.41025655, 4282.82051289, 4184.23076910, 4300.51282066, 4323.46153860, 4180.89743576, 4315.38461553, 4136.15384595,0
4287.17948725, 4292.43589751, 4295.00000007, 4264.74358975, 4302.56410271, 4307.94871809, 4297.17948725, 4281.02564110, 4182.05128192, 4295.38461546, 4315.25641040, 4180.64102551, 4316.66666681, 4134.99999973,0
4294.74358982, 4302.43589758, 4297.94871802, 4283.71794879, 4313.33333348, 4308.58974373, 4297.30769238, 4273.33333341, 4178.07692294, 4297.43589751, 4319.23076937, 4184.23076910, 4317.69230784, 4136.92307672,0
4293.07692315, 4304.74358989, 4297.43589751, 4287.56410264, 4312.43589758, 4302.94871809, 4290.12820520, 4269.87179495, 4181.79487166, 4300.25641040, 4317.30769245, 4183.33333320, 4313.58974373, 4132.69230742,0
4286.92307700, 4299.23076930, 4297.56410264, 4279.35897443, 4302.05128219, 4297.69230777, 4285.00000007, 4272.94871802, 4186.92307679, 4301.41025655, 4313.71794886, 4180.76923063, 4311.28205142, 4132.43589716,0
4288.20512828, 4300.00000014, 4296.66666674, 4269.87179495, 4299.35897443, 4297.94871802, 4278.20512828, 4273.97435905, 4186.79487166, 4303.46153860, 4320.12820527, 4180.89743576, 4313.07692322, 4135.38461518,0
4285.89743597, 4294.23076930, 4293.58974366, 4267.30769238, 4301.15384630, 4298.33333341, 4270.64102571, 4273.71794879, 4186.02564089, 4304.61538476, 4326.28205142, 4182.94871781, 4315.64102578, 4132.82051255,0
4285.89743597, 4277.05128212, 4290.12820520, 4262.17948718, 4297.30769238, 4296.02564110, 4273.20512828, 4274.35897443, 4184.23076910, 4297.43589751, 4318.71794886, 4181.53846140, 4315.89743604, 4133.84615357,0
4288.84615392, 4280.51282059, 4296.28205136, 4257.56410257, 4299.48717963, 4299.10256418, 4282.17948725, 4274.10256418, 4183.07692294, 4292.05128212, 4310.00000014, 4181.66666653, 4317.05128219, 4134.99999973,0
4293.97435905, 4298.20512828, 4310.38461553, 4266.28205129, 4307.05128219, 4304.87179501, 4287.69230777, 4274.23076930, 4185.25641012, 4294.87179495, 4312.94871809, 4189.23076910, 4315.38461553, 4133.84615357,0
4302.17948732, 4306.41025655, 4320.64102578, 4283.20512828, 4315.89743604, 4312.94871809, 4295.89743597, 4285.89743597, 4194.10256397, 4304.74358989, 4332.56410278, 4205.38461532, 4321.66666681, 4134.35897408,0
4302.69230784, 4305.38461553, 4321.92307707, 4290.76923084, 4322.17948732, 4320.25641040, 4299.48717963, 4295.76923084, 4194.74358961, 4309.74358989, 4339.87179508, 4214.10256404, 4330.89743604, 4134.74358947,0
4298.84615392, 4297.94871802, 4316.66666681, 4282.56410264, 4311.53846168, 4309.10256425, 4283.84615392, 4280.64102571, 4180.89743576, 4291.15384623, 4310.76923091, 4199.23076910, 4317.69230784, 4133.07692280,0
4295.89743597, 4294.61538469, 4314.61538476, 4277.82051289, 4304.48717963, 4302.43589758, 4279.35897443, 4271.15384623, 4180.25641012, 4281.15384623, 4304.10256425, 4189.48717935, 4306.28205142, 4132.05128178,0
4299.48717963, 4301.53846168, 4320.64102578, 4279.10256418, 4315.12820527, 4316.41025655, 4293.07692315, 4282.94871802, 4190.89743576, 4297.56410264, 4328.84615399, 4200.51282038, 4317.56410271, 4130.89743562,0
4302.69230784, 4301.15384630, 4323.46153860, 4281.92307700, 4315.51282066, 4320.76923091, 4289.74358982, 4287.30769238, 4190.76923063, 4308.97435912, 4330.38461553, 4207.05128199, 4325.51282066, 4129.10256383,0
4293.58974366, 4287.05128212, 4317.94871809, 4288.33333341, 4302.43589758, 4310.89743604, 4276.66666674, 4283.07692315, 4189.87179474, 4313.33333348, 4324.23076937, 4199.87179474, 4322.30769245, 4130.51282024,0
4293.33333341, 4284.48717956, 4313.84615399, 4284.48717956, 4298.46153853, 4305.38461553, 4278.71794879, 4281.92307700, 4192.69230756, 4314.61538476, 4328.71794886, 4187.69230756, 4320.00000014, 4133.33333306,0
4295.89743597, 4291.53846161, 4311.41025655, 4267.30769238, 4302.30769245, 4302.69230784, 4281.28205136, 4279.87179495, 4188.71794858, 4304.35897450, 4320.51282066, 4179.74358961, 4319.87179501, 4131.53846126,0
4290.89743597, 4286.66666674, 4305.76923091, 4257.69230770, 4297.94871802, 4294.10256418, 4277.17948725, 4277.69230777, 4187.43589730, 4298.97435905, 4312.30769245, 4178.46153833, 4319.48717963, 4129.61538434,0
4293.84615392, 4279.87179495, 4307.43589758, 4265.38461539, 4292.05128212, 4290.64102571, 4284.61538469, 4282.43589751, 4192.69230756, 4306.28205142, 4322.56410271, 4179.99999986, 4317.56410271, 4133.07692280,0
4297.17948725, 4286.66666674, 4318.84615399, 4281.15384623, 4297.30769238, 4296.41025648, 4290.64102571, 4285.51282059, 4193.20512807, 4310.38461553, 4331.66666681, 4185.76923063, 4321.15384630, 4131.79487152,0
4298.33333341, 4287.82051289, 4317.56410271, 4283.84615392, 4294.35897443, 4288.33333341, 4276.15384623, 4278.07692315, 4187.94871781, 4300.89743604, 4322.94871809, 4178.33333320, 4321.28205142, 4131.66666639,0
4296.02564110, 4283.33333341, 4307.56410271, 4271.28205136, 4287.56410264, 4279.23076930, 4270.76923084, 4277.43589751, 4189.10256397, 4297.17948725, 4315.51282066, 4161.41025621, 4310.25641040, 4133.71794844,0
4291.79487187, 4289.61538469, 4310.12820527, 4264.10256411, 4294.61538469, 4288.58974366, 4283.20512828, 4281.53846161, 4192.05128192, 4305.89743604, 4320.38461553, 4160.38461518, 4308.58974373, 4132.43589716,0
4295.00000007, 4292.69230777, 4313.58974373, 4262.43589744, 4293.84615392, 4293.33333341, 4282.69230777, 4275.25641033, 4189.10256397, 4304.48717963, 4320.76923091, 4163.33333313, 4317.56410271, 4132.56410229,0
4295.38461546, 4287.30769238, 4314.23076937, 4268.84615392, 4289.48717956, 4291.15384623, 4281.66666674, 4275.51282059, 4189.74358961, 4299.74358989, 4317.05128219, 4161.28205108, 4322.82051296, 4129.61538434,0
4296.41025648, 4281.02564110, 4319.61538476, 4276.41025648, 4297.30769238, 4293.84615392, 4289.23076930, 4278.71794879, 4190.38461525, 4297.30769238, 4315.00000014, 4159.61538441, 4317.82051296, 4127.94871767,0
4297.69230777, 4278.58974366, 4324.35897450, 4270.76923084, 4295.89743597, 4291.79487187, 4284.87179495, 4269.35897443, 4183.58974345, 4289.10256418, 4310.25641040, 4155.25641005, 4306.02564117, 4129.23076896,0
4295.76923084, 4283.20512828, 4328.84615399, 4267.05128212, 4290.25641033, 4283.84615392, 4281.15384623, 4267.43589751, 4184.35897422, 4287.94871802, 4305.51282066, 4150.76923056, 4306.02564117, 4127.30769203,0
4299.61538476, 4289.23076930, 4326.92307707, 4268.71794879, 4293.84615392, 4280.12820520, 4285.51282059, 4276.15384623, 4192.05128192, 4295.64102571, 4306.28205142, 4148.33333313, 4311.92307707, 4129.61538434,0
4296.66666674, 4285.38461546, 4316.79487194, 4266.92307700, 4290.51282059, 4281.41025648, 4280.12820520, 4271.66666674, 4190.89743576, 4295.38461546, 4308.71794886, 4144.87179467, 4307.43589758, 4132.56410229,0
4286.41025648, 4269.61538469, 4311.53846168, 4264.87179488, 4277.43589751, 4274.87179495, 4265.00000000, 4255.76923077, 4180.38461525, 4280.38461546, 4302.17948732, 4133.07692280, 4289.10256418, 4132.69230742,0
4282.56410264, 4256.66666667, 4308.33333348, 4263.20512821, 4271.92307700, 4262.43589744, 4255.38461539, 4244.10256411, 4173.33333320, 4259.61538462, 4285.51282059, 4117.30769203, 4272.82051289, 4132.05128178,0
4278.46153853, 4255.12820513, 4297.43589751, 4251.53846154, 4273.07692315, 4263.20512821, 4253.71794872, 4247.82051282, 4176.53846140, 4249.48717949, 4272.17948725, 4106.92307665, 4270.64102571, 4133.33333306,0
4282.30769238, 4257.30769231, 4291.41025648, 4239.23076923, 4267.69230777, 4270.12820520, 4258.07692308, 4261.53846154, 4182.17948704, 4253.33333334, 4268.33333341, 4101.79487145, 4267.17948725, 4138.20512800,0
4289.61538469, 4267.17948725, 4301.41025655, 4249.74358975, 4269.10256418, 4271.41025648, 4267.30769238, 4261.66666667, 4182.30769217, 4260.38461539, 4280.38461546, 4109.10256383, 4267.30769238, 4136.02564082,0
4291.02564110, 4277.69230777, 4310.51282066, 4262.43589744, 4278.07692315, 4268.58974366, 4265.64102564, 4247.43589744, 4177.43589730, 4260.89743590, 4297.43589751, 4121.41025614, 4278.84615392, 4131.66666639,0
4294.74358982, 4274.10256418, 4310.64102578, 4265.12820513, 4279.74358982, 4264.35897436, 4258.97435898, 4247.94871795, 4180.12820499, 4263.84615385, 4298.58974366, 4126.79487152, 4294.35897443, 4132.69230742,0
4296.15384623, 4275.51282059, 4312.43589758, 4271.02564110, 4283.07692315, 4268.33333341, 4261.66666667, 4264.35897436, 4189.87179474, 4274.87179495, 4295.51282059, 4133.33333306, 4302.17948732, 4131.53846126,0
4293.84615392, 4279.35897443, 4308.97435912, 4266.02564103, 4280.38461546, 4268.33333341, 4256.28205129, 4260.38461539, 4185.76923063, 4266.66666674, 4295.00000007, 4132.82051255, 4285.38461546, 4136.28205108,0
4290.12820520, 4266.92307700, 4296.79487187, 4258.84615385, 4273.20512828, 4261.28205129, 4250.51282052, 4244.87179488, 4176.92307679, 4249.61538462, 4290.89743597, 4122.56410229, 4267.94871802, 4138.71794851,0
4291.53846161, 4260.76923077, 4294.87179495, 4268.20512828, 4277.43589751, 4267.94871802, 4267.17948725, 4255.12820513, 4185.12820499, 4258.20512821, 4288.46153853, 4122.30769203, 4276.66666674, 4133.84615357,0
