AF3,F7,F3,FC5,T7,P7,O1,O2,P8,T8,FC6,F4,F8,AF4,Label
4019.48717900, 4072.56410222, 4078.84615350, 4067.05128164, 4085.38461504, 4104.74358947, 4101.02564068, 4114.74358947, 4116.15384588, 4105.12820485, 4106.66666639, 4094.35897402, 4098.71794837, 4118.07692280,0
4019.99999952, 4071.53846119, 4067.82051241, 4057.05128164, 4085.64102530, 4109.87179460, 4088.46153812, 4103.20512793, 4105.76923050, 4095.25640991, 4095.64102530, 4085.38461504, 4093.07692273, 4124.99999973,0
4025.38461490, 4066.41025600, 4068.33333292, 4056.41025600, 4077.56410222, 4113.07692280, 4085.76923043, 4100.64102530, 4100.76923043, 4087.43589709, 4081.28205094, 4075.64102530, 4079.23076889, 4125.51282024,0
4025.76923029, 4067.05128164, 4078.71794837, 4061.15384574, 4084.87179453, 4106.66666639, 4091.28205094, 4110.64102537, 4107.82051255, 4097.30769196, 4084.23076889, 4084.10256376, 4088.20512786, 4121.02564075,0
4025.38461490, 4059.48717907, 4073.71794837, 4056.79487138, 4093.97435863, 4108.33333306, 4078.20512786, 4096.02564068, 4102.69230742, 4094.87179453, 4094.10256376, 4082.17948684, 4085.64102530, 4124.61538434,0
4024.74358926, 4084.87179453, 4078.58974325, 4073.07692273, 4094.35897402, 4126.15384588, 4090.51282017, 4091.53846119, 4104.23076896, 4102.43589709, 4107.82051255, 4089.61538427, 4082.82051248, 4117.43589716,0
4035.38461490, 4099.35897402, 4084.10256376, 4080.51282017, 4092.43589709, 4116.28205101, 4104.74358947, 4103.71794844, 4110.51282024, 4107.56410229, 4098.33333299, 4092.69230735, 4081.41025607, 4124.10256383,0
4024.87179439, 4072.17948684, 4066.79487138, 4068.33333292, 4103.58974332, 4099.61538427, 4078.58974325, 4092.82051248, 4105.12820485, 4094.74358940, 4082.43589709, 4070.51282017, 4072.43589709, 4125.25640998,0
4014.48717900, 4072.69230735, 4060.12820472, 4073.84615350, 4101.15384581, 4104.87179460, 4073.84615350, 4081.28205094, 4100.25640991, 4093.46153812, 4090.25640991, 4058.71794830, 4067.30769189, 4119.23076896,0
4026.02564054, 4085.64102530, 4056.79487138, 4077.56410222, 4075.89743555, 4096.15384581, 4095.38461504, 4089.10256376, 4096.02564068, 4083.33333299, 4073.58974325, 4051.79487138, 4053.07692266, 4124.61538434,0
4012.30769183, 4074.87179453, 4046.15384574, 4071.92307658, 4080.89743555, 4089.23076889, 4084.10256376, 4091.79487145, 4094.35897402, 4063.20512779, 4048.58974318, 4044.74358933, 4034.61538413, 4119.87179460,0
4007.43589695, 4068.46153805, 4044.48717907, 4069.74358940, 4093.71794837, 4094.10256376, 4056.66666625, 4082.69230735, 4091.79487145, 4064.61538420, 4054.74358933, 4042.56410215, 4031.28205080, 4125.64102537,0
4020.38461490, 4083.58974325, 4051.41025600, 4078.33333299, 4068.33333292, 4095.38461504, 4076.41025607, 4087.30769196, 4095.12820478, 4083.84615350, 4064.23076882, 4049.35897395, 4062.69230728, 4125.25640998,0
4017.56410208, 4086.66666632, 4057.82051241, 4087.17948684, 4063.84615343, 4099.23076889, 4100.89743555, 4095.64102530, 4103.20512793, 4084.23076889, 4062.05128164, 4063.20512779, 4079.10256376, 4119.23076896,0
4018.71794824, 4064.35897395, 4058.07692266, 4077.94871761, 4090.38461504, 4093.46153812, 4082.30769196, 4089.74358940, 4102.30769196, 4071.02564068, 4064.87179446, 4065.64102523, 4051.15384574, 4128.20512793,0
4020.89743541, 4061.41025600, 4066.28205087, 4076.02564068, 4091.92307658, 4086.02564068, 4082.43589709, 4097.94871761, 4105.76923050, 4095.64102530, 4085.38461504, 4074.48717914, 4060.51282010, 4120.76923050,0
4027.94871747, 4076.28205094, 4074.99999966, 4083.33333299, 4076.92307658, 4092.56410222, 4098.84615350, 4110.76923050, 4110.25640998, 4111.66666639, 4089.35897402, 4081.53846119, 4089.10256376, 4122.43589716,0
4030.76923029, 4087.69230735, 4072.17948684, 4084.99999966, 4086.15384581, 4105.89743562, 4090.51282017, 4108.58974332, 4109.87179460, 4089.87179453, 4079.61538427, 4074.35897402, 4071.41025607, 4126.28205101,0
4020.12820465, 4085.64102530, 4066.92307651, 4080.25640991, 4088.07692273, 4099.87179453, 4076.41025607, 4100.89743555, 4107.05128178, 4088.97435863, 4086.79487145, 4067.94871754, 4051.02564061, 4118.07692280,0
4024.35897388, 4070.38461504, 4062.69230728, 4068.46153805, 4062.43589702, 4074.61538427, 4074.61538427, 4088.58974325, 4100.89743555, 4104.99999973, 4086.79487145, 4062.05128164, 4061.92307651, 4125.12820485,0
4024.23076875, 4072.43589709, 4068.71794830, 4072.69230735, 4074.10256376, 4085.64102530, 4093.07692273, 4094.48717914, 4106.02564075, 4108.71794844, 4084.48717914, 4069.48717907, 4082.05128171, 4119.87179460,0
4023.84615336, 4068.46153805, 4068.97435856, 4074.87179453, 4099.23076889, 4105.76923050, 4105.38461511, 4104.23076896, 4107.94871767, 4098.84615350, 4088.07692273, 4073.20512786, 4082.69230735, 4120.89743562,0
4028.20512772, 4060.51282010, 4058.33333292, 4060.51282010, 4094.48717914, 4101.41025607, 4101.02564068, 4092.43589709, 4102.43589709, 4096.28205094, 4091.28205094, 4060.25640984, 4069.87179453, 4126.66666639,0
4021.53846106, 4063.33333292, 4059.99999959, 4058.46153805, 4092.05128171, 4110.76923050, 4106.53846126, 4090.38461504, 4106.53846126, 4106.28205101, 4091.53846119, 4060.12820472, 4075.38461504, 4117.17948691,0
4032.69230721, 4051.92307651, 4065.25640984, 4056.02564061, 4083.58974325, 4116.15384588, 4117.69230742, 4107.05128178, 4110.25640998, 4100.51282017, 4076.66666632, 4065.89743548, 4091.28205094, 4127.82051255,0
4044.23076882, 4068.20512779, 4079.74358940, 4068.71794830, 4087.94871761, 4117.17948691, 4132.94871767, 4125.89743562, 4120.76923050, 4105.64102537, 4089.74358940, 4079.99999966, 4102.82051255, 4123.84615357,0
4053.58974318, 4107.05128178, 4106.53846126, 4093.84615350, 4102.43589709, 4130.25640998, 4149.87179467, 4133.33333306, 4133.71794844, 4131.53846126, 4127.30769203, 4104.99999973, 4107.82051255, 4115.89743562,0
4062.94871754, 4103.46153819, 4108.33333306, 4088.33333299, 4099.87179453, 4133.84615357, 4145.51282031, 4126.41025614, 4126.41025614, 4132.05128178, 4124.35897408, 4107.43589716, 4096.15384581, 4126.79487152,0
4049.74358933, 4082.30769196, 4097.43589709, 4078.97435863, 4100.89743555, 4128.71794844, 4130.38461511, 4124.23076896, 4117.82051255, 4119.10256383, 4099.48717914, 4095.64102530, 4089.35897402, 4120.51282024,0
4053.07692266, 4080.64102530, 4098.71794837, 4084.23076889, 4091.66666632, 4122.69230742, 4128.97435870, 4126.41025614, 4116.02564075, 4113.71794844, 4091.41025607, 4090.89743555, 4093.20512786, 4123.71794844,0
4055.64102523, 4084.99999966, 4098.84615350, 4087.30769196, 4086.02564068, 4132.43589716, 4141.41025621, 4125.12820485, 4117.82051255, 4119.87179460, 4103.46153819, 4092.30769196, 4092.56410222, 4123.46153819,0
4049.35897395, 4084.74358940, 4096.15384581, 4080.76923043, 4101.02564068, 4134.87179460, 4146.28205108, 4120.12820485, 4122.17948691, 4127.30769203, 4112.82051255, 4094.23076889, 4097.17948684, 4118.97435870,0
4065.64102523, 4097.17948684, 4105.64102537, 4083.46153812, 4109.74358947, 4127.17948691, 4143.33333313, 4118.58974332, 4122.30769203, 4127.69230742, 4107.30769203, 4101.92307658, 4121.02564075, 4124.87179460,0
4066.92307651, 4126.02564075, 4119.99999973, 4105.51282024, 4124.10256383, 4149.10256390, 4144.74358954, 4128.97435870, 4124.61538434, 4132.56410229, 4113.97435870, 4116.79487152, 4129.23076896, 4117.82051255,0
4061.92307651, 4120.76923050, 4111.53846126, 4110.12820485, 4116.15384588, 4148.33333313, 4129.74358947, 4123.46153819, 4125.12820485, 4128.46153819, 4130.64102537, 4112.43589716, 4095.51282017, 4124.74358947,0
4067.05128164, 4102.56410229, 4107.94871767, 4112.82051255, 4106.02564075, 4125.25640998, 4123.46153819, 4114.61538434, 4125.25640998, 4132.94871767, 4138.84615364, 4109.23076896, 4097.17948684, 4125.12820485,0
4066.53846113, 4123.71794844, 4126.02564075, 4132.69230742, 4132.05128178, 4132.43589716, 4136.41025621, 4124.87179460, 4128.33333306, 4150.64102544, 4138.84615364, 4123.97435870, 4135.76923056, 4116.66666639,0
4071.15384581, 4126.15384588, 4122.17948691, 4126.66666639, 4125.38461511, 4130.51282024, 4134.99999973, 4126.15384588, 4123.07692280, 4134.48717921, 4134.61538434, 4119.87179460, 4125.38461511, 4126.79487152,0
4066.53846113, 4116.92307665, 4116.92307665, 4122.05128178, 4109.99999973, 4129.74358947, 4140.64102544, 4124.99999973, 4120.38461511, 4118.46153819, 4146.15384595, 4117.30769203, 4105.38461511, 4121.79487152,0
4058.07692266, 4127.17948691, 4121.28205101, 4132.17948691, 4126.15384588, 4144.10256390, 4142.17948697, 4119.74358947, 4116.66666639, 4124.99999973, 4142.69230749, 4113.46153819, 4108.71794844, 4121.66666639,0
4063.07692266, 4122.69230742, 4118.58974332, 4126.28205101, 4123.71794844, 4141.28205108, 4141.02564082, 4116.28205101, 4118.33333306, 4130.38461511, 4116.66666639, 4103.46153819, 4116.66666639, 4124.74358947,0
4071.53846119, 4111.41025614, 4125.38461511, 4121.28205101, 4113.46153819, 4133.97435870, 4160.12820492, 4132.94871767, 4130.25640998, 4141.66666646, 4126.15384588, 4119.48717921, 4123.71794844, 4114.48717921,0
4076.92307658, 4111.15384588, 4126.53846126, 4116.28205101, 4128.58974332, 4132.69230742, 4153.20512800, 4133.84615357, 4123.46153819, 4138.20512800, 4143.33333313, 4122.82051255, 4101.02564068, 4123.33333306,0
4072.69230735, 4119.74358947, 4126.92307665, 4120.64102537, 4125.12820485, 4132.05128178, 4144.10256390, 4126.79487152, 4123.58974332, 4140.12820492, 4132.56410229, 4116.02564075, 4099.10256376, 4121.53846126,0
4083.97435863, 4134.10256383, 4145.25641005, 4134.87179460, 4108.97435870, 4138.58974339, 4165.12820492, 4142.94871774, 4138.33333313, 4155.12820492, 4121.53846126, 4133.58974332, 4132.05128178, 4117.69230742,0
4094.87179453, 4146.53846133, 4152.43589723, 4142.17948697, 4133.20512793, 4150.38461518, 4170.64102551, 4151.92307672, 4133.97435870, 4145.38461518, 4128.20512793, 4146.79487159, 4131.15384588, 4127.82051255,0
4079.10256376, 4144.10256390, 4143.33333313, 4153.71794851, 4161.28205108, 4150.51282031, 4157.82051262, 4138.07692287, 4124.87179460, 4136.41025621, 4143.33333313, 4141.66666646, 4115.12820485, 4124.35897408,0
4078.58974325, 4132.17948691, 4138.71794851, 4156.66666646, 4150.38461518, 4137.17948697, 4151.28205108, 4127.69230742, 4123.46153819, 4139.35897415, 4139.48717928, 4131.02564075, 4124.48717921, 4127.56410229,0
4077.43589709, 4128.58974332, 4138.20512800, 4145.64102544, 4125.25640998, 4142.17948697, 4162.17948697, 4135.12820485, 4129.87179460, 4148.46153826, 4129.74358947, 4130.25640998, 4143.20512800, 4122.82051255,0
4071.02564068, 4127.82051255, 4131.02564075, 4137.56410236, 4124.10256383, 4150.76923056, 4167.69230749, 4139.23076903, 4132.30769203, 4146.92307672, 4128.71794844, 4127.43589716, 4134.10256383, 4118.46153819,0
4083.07692273, 4133.33333306, 4131.41025614, 4143.97435877, 4139.99999980, 4143.33333313, 4152.17948697, 4135.38461518, 4131.02564075, 4136.28205108, 4130.89743562, 4123.33333306, 4115.89743562, 4127.43589716,0
4082.05128171, 4145.64102544, 4140.89743569, 4148.84615364, 4141.66666646, 4152.05128185, 4151.28205108, 4142.43589723, 4137.17948697, 4152.69230749, 4146.02564082, 4132.17948691, 4123.58974332, 4120.64102537,0
4076.15384581, 4131.41025614, 4127.94871767, 4129.48717921, 4132.69230742, 4146.15384595, 4151.15384595, 4136.53846133, 4127.82051255, 4159.10256390, 4154.48717928, 4126.28205101, 4125.25640998, 4125.25640998,0
4068.84615343, 4112.30769203, 4106.92307665, 4124.35897408, 4145.25641005, 4129.23076896, 4129.87179460, 4122.69230742, 4117.05128178, 4136.92307672, 4132.82051255, 4107.30769203, 4112.05128178, 4123.07692280,0
4071.92307658, 4124.35897408, 4115.12820485, 4137.43589723, 4149.87179467, 4143.84615364, 4135.76923056, 4135.12820485, 4128.20512793, 4130.12820485, 4107.17948691, 4108.20512793, 4112.05128178, 4114.61538434,0
4096.15384581, 4138.33333313, 4141.28205108, 4135.51282031, 4116.15384588, 4156.02564082, 4173.33333320, 4156.28205108, 4139.10256390, 4147.56410236, 4128.46153819, 4133.20512793, 4132.69230742, 4126.02564075,0
4100.12820478, 4142.43589723, 4168.58974345, 4146.79487159, 4125.89743562, 4164.35897415, 4183.07692294, 4165.38461518, 4144.48717928, 4170.64102551, 4185.51282038, 4175.25641012, 4167.82051262, 4120.64102537,0
4102.43589709, 4144.10256390, 4182.69230756, 4164.23076903, 4158.33333313, 4160.64102544, 4160.25641005, 4153.58974339, 4141.92307672, 4168.07692287, 4204.99999993, 4194.87179474, 4173.71794858, 4120.76923050,0
4109.35897408, 4151.02564082, 4187.30769217, 4160.51282031, 4157.94871774, 4151.28205108, 4165.25641005, 4148.20512800, 4139.99999980, 4153.84615364, 4200.51282038, 4193.71794858, 4156.28205108, 4122.69230742,0
4108.46153819, 4161.66666646, 4199.48717935, 4160.38461518, 4160.51282031, 4168.71794858, 4186.79487166, 4161.79487159, 4143.20512800, 4155.89743569, 4216.92307686, 4207.17948711, 4164.99999980, 4116.92307665,0
4117.94871767, 4162.69230749, 4197.94871781, 4162.43589723, 4150.38461518, 4175.76923063, 4182.43589730, 4160.64102544, 4137.82051262, 4159.23076903, 4211.79487173, 4205.12820506, 4174.61538448, 4128.46153819,0
4115.51282024, 4161.02564082, 4191.66666653, 4161.41025621, 4126.02564075, 4166.28205108, 4183.20512807, 4151.79487159, 4136.66666646, 4163.20512800, 4191.28205115, 4194.48717935, 4171.28205115, 4121.92307665,0
4107.94871767, 4144.23076903, 4192.05128192, 4153.33333313, 4118.33333306, 4160.25641005, 4180.12820499, 4145.38461518, 4136.02564082, 4155.76923056, 4189.10256397, 4192.05128192, 4162.69230749, 4118.97435870,0
4108.20512793, 4134.74358947, 4184.23076910, 4145.64102544, 4132.30769203, 4156.02564082, 4162.56410236, 4138.46153826, 4126.15384588, 4141.41025621, 4190.64102551, 4183.20512807, 4157.43589723, 4123.58974332,0
4098.33333299, 4148.33333313, 4172.69230756, 4151.53846133, 4152.17948697, 4155.64102544, 4154.35897415, 4134.48717921, 4121.66666639, 4141.92307672, 4187.43589730, 4176.28205115, 4152.17948697, 4117.56410229,0
4094.23076889, 4138.46153826, 4158.07692287, 4143.58974339, 4146.79487159, 4152.82051262, 4139.48717928, 4120.51282024, 4118.58974332, 4134.74358947, 4167.05128185, 4163.97435877, 4123.46153819, 4125.25640998,0
4093.97435863, 4126.53846126, 4160.51282031, 4146.53846133, 4139.35897415, 4148.07692287, 4137.56410236, 4119.10256383, 4120.51282024, 4132.94871767, 4163.84615364, 4164.10256390, 4123.97435870, 4119.48717921,0
4098.97435863, 4137.17948697, 4176.15384602, 4163.97435877, 4144.61538441, 4144.87179467, 4143.97435877, 4132.30769203, 4123.07692280, 4143.97435877, 4186.28205115, 4176.66666653, 4157.05128185, 4118.58974332,0
4108.84615357, 4150.76923056, 4176.92307679, 4162.94871774, 4143.33333313, 4155.64102544, 4140.64102544, 4130.51282024, 4124.61538434, 4144.74358954, 4189.61538448, 4178.33333320, 4159.99999980, 4127.05128178,0
4107.17948691, 4154.35897415, 4177.94871781, 4155.76923056, 4134.23076896, 4162.17948697, 4151.15384595, 4127.05128178, 4131.02564075, 4145.89743569, 4187.30769217, 4182.94871781, 4153.84615364, 4119.10256383,0
4108.33333306, 4126.53846126, 4177.05128192, 4146.66666646, 4129.61538434, 4132.69230742, 4141.28205108, 4120.64102537, 4122.82051255, 4139.10256390, 4184.10256397, 4176.66666653, 4150.25641005, 4126.02564075,0
4100.76923043, 4114.35897408, 4165.89743569, 4143.97435877, 4142.94871774, 4126.53846126, 4122.05128178, 4123.58974332, 4117.56410229, 4134.74358947, 4174.10256397, 4165.25641005, 4151.02564082, 4124.23076896,0
4102.17948684, 4143.07692287, 4160.64102544, 4139.48717928, 4143.97435877, 4154.61538441, 4144.23076903, 4146.79487159, 4131.92307665, 4139.87179467, 4166.79487159, 4166.92307672, 4156.28205108, 4119.61538434,0
4116.79487152, 4155.64102544, 4160.51282031, 4135.51282031, 4131.53846126, 4156.41025621, 4155.64102544, 4148.07692287, 4135.25640998, 4127.05128178, 4170.38461525, 4165.76923056, 4142.17948697, 4127.69230742,0
4098.58974325, 4141.92307672, 4152.30769210, 4155.89743569, 4150.76923056, 4144.35897415, 4125.51282024, 4128.20512793, 4127.05128178, 4119.61538434, 4176.66666653, 4156.92307672, 4131.02564075, 4119.74358947,0
4087.30769196, 4111.79487152, 4129.23076896, 4151.15384595, 4146.53846133, 4129.61538434, 4113.97435870, 4122.94871767, 4120.51282024, 4123.33333306, 4151.66666646, 4134.61538434, 4129.10256383, 4120.12820485,0
4093.33333299, 4110.25640998, 4117.43589716, 4133.07692280, 4116.53846126, 4135.89743569, 4138.58974339, 4133.97435870, 4121.02564075, 4134.23076896, 4128.20512793, 4125.12820485, 4124.99999973, 4119.87179460,0
4094.10256376, 4140.76923056, 4128.46153819, 4146.79487159, 4130.89743562, 4151.79487159, 4139.10256390, 4133.20512793, 4125.38461511, 4146.41025621, 4138.07692287, 4136.79487159, 4128.71794844, 4117.43589716,0
4095.76923043, 4129.10256383, 4121.41025614, 4139.87179467, 4147.43589723, 4131.79487152, 4116.15384588, 4123.07692280, 4123.46153819, 4132.94871767, 4131.92307665, 4128.46153819, 4133.46153819, 4125.12820485,0
4084.35897402, 4108.33333306, 4107.94871767, 4119.23076896, 4129.99999973, 4127.82051255, 4122.94871767, 4128.97435870, 4128.20512793, 4126.66666639, 4119.99999973, 4115.51282024, 4131.53846126, 4114.99999973,0
4090.76923043, 4123.33333306, 4114.10256383, 4125.12820485, 4115.89743562, 4147.17948697, 4130.51282024, 4139.61538441, 4134.99999973, 4140.51282031, 4131.41025614, 4122.30769203, 4129.48717921, 4118.58974332,0
4107.43589716, 4140.51282031, 4125.25640998, 4138.84615364, 4129.61538434, 4138.71794851, 4128.33333306, 4148.71794851, 4139.35897415, 4156.92307672, 4144.61538441, 4137.43589723, 4144.61538441, 4124.99999973,0
4099.99999966, 4128.84615357, 4128.07692280, 4140.76923056, 4137.30769210, 4123.20512793, 4137.56410236, 4150.76923056, 4140.38461518, 4158.20512800, 4143.84615364, 4139.99999980, 4154.35897415, 4116.53846126,0
4097.30769196, 4115.64102537, 4117.30769203, 4129.99999973, 4122.43589716, 4140.76923056, 4140.64102544, 4138.58974339, 4131.28205101, 4136.92307672, 4130.64102537, 4122.43589716, 4129.35897408, 4123.58974332,0
4101.15384581, 4129.61538434, 4117.69230742, 4132.69230742, 4128.97435870, 4161.28205108, 4147.30769210, 4142.82051262, 4135.51282031, 4141.53846133, 4127.56410229, 4123.97435870, 4123.20512793, 4119.61538434,0
4106.15384588, 4124.23076896, 4128.71794844, 4137.82051262, 4129.48717921, 4150.12820492, 4152.56410236, 4152.82051262, 4139.61538441, 4151.15384595, 4133.07692280, 4138.84615364, 4143.07692287, 4119.74358947,0
4103.46153819, 4107.56410229, 4124.10256383, 4137.05128185, 4125.51282024, 4138.07692287, 4140.64102544, 4138.71794851, 4126.79487152, 4133.20512793, 4133.58974332, 4131.41025614, 4132.69230742, 4124.87179460,0
4093.20512786, 4127.17948691, 4115.89743562, 4146.79487159, 4151.92307672, 4137.30769210, 4129.99999973, 4123.58974332, 4118.20512793, 4127.30769203, 4131.02564075, 4121.79487152, 4114.61538434, 4116.28205101,0
4106.28205101, 4144.23076903, 4116.53846126, 4143.46153826, 4140.38461518, 4125.38461511, 4125.51282024, 4122.69230742, 4118.33333306, 4131.79487152, 4127.69230742, 4123.97435870, 4125.76923050, 4124.23076896,0
4104.10256383, 4128.20512793, 4120.12820485, 4137.43589723, 4106.66666639, 4127.30769203, 4127.43589716, 4130.12820485, 4129.61538434, 4139.23076903, 4141.66666646, 4132.56410229, 4150.12820492, 4123.58974332,0
4093.58974325, 4115.51282024, 4114.74358947, 4137.17948697, 4118.07692280, 4138.33333313, 4132.30769203, 4132.17948691, 4134.23076896, 4144.35897415, 4146.28205108, 4132.17948691, 4148.58974339, 4121.79487152,0
4099.35897402, 4109.87179460, 4100.76923043, 4121.15384588, 4130.89743562, 4121.79487152, 4127.17948691, 4122.56410229, 4123.07692280, 4129.99999973, 4122.05128178, 4113.46153819, 4122.69230742, 4126.92307665,0
4093.33333299, 4098.46153812, 4101.28205094, 4111.28205101, 4126.02564075, 4115.25640998, 4119.87179460, 4124.10256383, 4122.17948691, 4128.97435870, 4121.28205101, 4110.38461511, 4119.10256383, 4119.23076896,0
4097.17948684, 4106.15384588, 4108.97435870, 4115.25640998, 4117.82051255, 4132.17948691, 4122.05128178, 4135.12820485, 4129.10256383, 4139.74358954, 4132.30769203, 4121.66666639, 4127.82051255, 4125.51282024,0
4106.79487152, 4129.87179460, 4114.99999973, 4127.82051255, 4108.84615357, 4151.02564082, 4147.82051262, 4152.69230749, 4140.12820492, 4141.02564082, 4130.76923050, 4135.38461518, 4136.92307672, 4120.38461511,0
4106.53846126, 4126.28205101, 4120.89743562, 4134.87179460, 4114.23076896, 4145.76923056, 4161.41025621, 4157.69230749, 4142.69230749, 4138.20512800, 4133.71794844, 4142.30769210, 4143.84615364, 4115.38461511,0
4104.61538434, 4102.69230742, 4115.38461511, 4124.99999973, 4135.12820485, 4122.56410229, 4133.58974332, 4134.74358947, 4129.10256383, 4136.79487159, 4135.38461518, 4132.17948691, 4131.41025614, 4124.61538434,0
4097.69230735, 4113.71794844, 4111.53846126, 4124.10256383, 4137.82051262, 4122.17948691, 4119.23076896, 4124.23076896, 4126.41025614, 4142.43589723, 4131.28205101, 4129.23076896, 4130.38461511, 4117.30769203,0
4106.02564075, 4124.48717921, 4112.30769203, 4127.56410229, 4099.10256376, 4111.28205101, 4128.07692280, 4124.35897408, 4125.76923050, 4133.20512793, 4124.74358947, 4128.84615357, 4142.05128185, 4122.69230742,0
4109.23076896, 4114.23076896, 4112.43589716, 4133.33333306, 4105.64102537, 4106.02564075, 4123.07692280, 4119.23076896, 4118.33333306, 4120.64102537, 4131.92307665, 4130.76923050, 4139.35897415, 4121.53846126,0
4108.20512793, 4128.97435870, 4123.46153819, 4142.69230749, 4133.20512793, 4144.61538441, 4119.61538434, 4127.82051255, 4126.15384588, 4134.99999973, 4150.89743569, 4146.41025621, 4134.61538434, 4115.25640998,0
4113.58974332, 4131.02564075, 4127.17948691, 4137.17948697, 4105.89743562, 4153.84615364, 4111.66666639, 4126.53846126, 4128.46153819, 4140.76923056, 4150.25641005, 4144.74358954, 4127.69230742, 4126.02564075,0
4092.94871761, 4108.46153819, 4109.23076896, 4126.41025614, 4103.33333306, 4114.99999973, 4107.30769203, 4114.35897408, 4119.48717921, 4113.33333306, 4122.05128178, 4119.74358947, 4117.56410229, 4116.28205101,0
4087.69230735, 4094.10256376, 4083.46153812, 4105.64102537, 4124.35897408, 4097.05128171, 4117.56410229, 4117.56410229, 4119.23076896, 4085.76923043, 4085.12820478, 4090.38461504, 4100.25640991, 4118.58974332,0
4102.17948684, 4102.43589709, 4091.15384581, 4105.38461511, 4130.89743562, 4119.61538434, 4115.89743562, 4126.41025614, 4126.41025614, 4110.12820485, 4105.51282024, 4102.05128171, 4104.23076896, 4125.64102537,0
4104.48717921, 4123.71794844, 4132.17948691, 4139.61538441, 4143.46153826, 4143.07692287, 4108.58974332, 4124.10256383, 4125.12820485, 4151.66666646, 4168.20512807, 4152.94871774, 4146.41025621, 4118.33333306,0
4123.97435870, 4129.87179460, 4147.17948697, 4140.25641005, 4129.23076896, 4141.92307672, 4120.76923050, 4121.53846126, 4117.69230742, 4147.94871774, 4179.61538448, 4171.28205115, 4162.05128185, 4125.38461511,0
4134.99999973, 4137.17948697, 4149.10256390, 4135.89743569, 4109.74358947, 4140.89743569, 4145.38461518, 4135.38461518, 4129.61538434, 4136.41025621, 4175.64102551, 4174.87179474, 4156.79487159, 4121.02564075,0
4128.20512793, 4138.33333313, 4156.15384595, 4148.84615364, 4136.02564082, 4139.87179467, 4137.69230749, 4135.64102544, 4135.25640998, 4133.58974332, 4183.58974345, 4179.35897422, 4149.35897415, 4121.41025614,0
4123.33333306, 4126.53846126, 4143.20512800, 4140.89743569, 4149.87179467, 4122.94871767, 4123.71794844, 4123.20512793, 4123.20512793, 4129.23076896, 4163.07692287, 4158.97435877, 4139.74358954, 4126.28205101,0
4121.28205101, 4131.79487152, 4133.07692280, 4133.46153819, 4122.17948691, 4125.12820485, 4144.61538441, 4128.46153819, 4123.58974332, 4132.69230742, 4151.28205108, 4149.35897415, 4146.15384595, 4118.71794844,0
4127.30769203, 4136.15384595, 4133.20512793, 4133.33333306, 4118.58974332, 4146.66666646, 4145.51282031, 4127.56410229, 4122.56410229, 4118.71794844, 4160.64102544, 4153.84615364, 4140.38461518, 4126.28205101,0
4121.53846126, 4127.17948691, 4132.94871767, 4130.76923050, 4140.38461518, 4160.76923056, 4136.02564082, 4124.61538434, 4122.30769203, 4112.94871767, 4154.48717928, 4151.53846133, 4138.07692287, 4122.30769203,0
4116.41025614, 4122.56410229, 4126.79487152, 4124.23076896, 4133.58974332, 4149.87179467, 4143.07692287, 4126.28205101, 4125.51282024, 4122.56410229, 4131.02564075, 4140.38461518, 4144.35897415, 4120.64102537,0
4119.61538434, 4125.89743562, 4114.35897408, 4121.66666639, 4121.02564075, 4132.82051255, 4144.99999980, 4122.43589716, 4124.23076896, 4112.94871767, 4123.07692280, 4130.76923050, 4133.58974332, 4126.15384588,0
4115.38461511, 4123.58974332, 4120.25640998, 4132.43589716, 4138.20512800, 4125.64102537, 4145.38461518, 4120.76923050, 4123.07692280, 4111.53846126, 4147.56410236, 4140.12820492, 4125.38461511, 4114.99999973,0
4131.53846126, 4121.66666639, 4139.99999980, 4144.61538441, 4129.87179460, 4125.64102537, 4159.23076903, 4123.46153819, 4121.53846126, 4126.79487152, 4171.15384602, 4156.02564082, 4141.02564082, 4122.05128178,0
4145.25641005, 4154.10256390, 4152.30769210, 4158.84615364, 4126.15384588, 4159.99999980, 4179.99999986, 4136.02564082, 4131.66666639, 4137.43589723, 4181.79487166, 4169.23076910, 4174.87179474, 4125.89743562,0
4139.23076903, 4169.35897422, 4151.92307672, 4161.02564082, 4156.79487159, 4174.87179474, 4174.23076910, 4143.33333313, 4141.02564082, 4140.51282031, 4178.71794858, 4170.76923063, 4184.10256397, 4120.38461511,0
4141.02564082, 4139.87179467, 4154.87179467, 4152.82051262, 4157.82051262, 4141.66666646, 4162.43589723, 4139.99999980, 4138.33333313, 4152.94871774, 4169.35897422, 4166.53846133, 4171.53846140, 4124.35897408,0
4143.20512800, 4151.79487159, 4170.76923063, 4164.74358954, 4154.23076903, 4145.51282031, 4178.84615371, 4148.46153826, 4139.48717928, 4174.10256397, 4185.38461525, 4184.61538448, 4180.51282038, 4116.92307665,0
4150.51282031, 4173.84615371, 4168.33333320, 4171.15384602, 4157.82051262, 4156.02564082, 4179.10256397, 4149.61538441, 4136.28205108, 4162.82051262, 4201.66666660, 4190.12820499, 4183.58974345, 4121.02564075,0
4142.69230749, 4149.61538441, 4153.71794851, 4163.33333313, 4139.48717928, 4138.71794851, 4162.17948697, 4135.76923056, 4132.56410229, 4146.15384595, 4201.02564096, 4174.48717935, 4173.33333320, 4121.79487152,0
4128.71794844, 4134.74358947, 4151.79487159, 4160.38461518, 4120.89743562, 4145.89743569, 4165.51282031, 4131.66666639, 4135.89743569, 4153.84615364, 4187.43589730, 4171.92307679, 4175.64102551, 4116.66666639,0
4136.28205108, 4140.38461518, 4143.07692287, 4144.99999980, 4134.35897408, 4146.79487159, 4166.53846133, 4131.28205101, 4127.82051255, 4141.41025621, 4157.05128185, 4164.87179467, 4162.05128185, 4127.05128178,0
4132.82051255, 4135.76923056, 4135.25640998, 4134.74358947, 4151.79487159, 4133.33333306, 4167.94871774, 4129.87179460, 4125.51282024, 4130.38461511, 4158.58974339, 4157.30769210, 4144.87179467, 4118.58974332,0
4134.35897408, 4129.23076896, 4140.38461518, 4140.38461518, 4138.07692287, 4143.71794851, 4179.35897422, 4127.43589716, 4129.87179460, 4130.38461511, 4183.58974345, 4158.97435877, 4149.48717928, 4119.48717921,0
4139.87179467, 4134.23076896, 4140.51282031, 4147.05128185, 4127.82051255, 4147.69230749, 4180.51282038, 4126.53846126, 4126.79487152, 4121.79487152, 4174.35897422, 4159.99999980, 4158.58974339, 4126.53846126,0
4127.94871767, 4134.99999973, 4132.05128178, 4144.48717928, 4119.87179460, 4119.87179460, 4165.76923056, 4124.23076896, 4121.15384588, 4130.89743562, 4156.02564082, 4160.12820492, 4164.99999980, 4118.71794844,0
4131.41025614, 4121.15384588, 4126.79487152, 4132.43589716, 4098.58974325, 4105.89743562, 4153.07692287, 4116.53846126, 4118.20512793, 4128.97435870, 4161.66666646, 4154.35897415, 4155.12820492, 4122.94871767,0
4131.53846126, 4118.84615357, 4130.25640998, 4135.51282031, 4115.25640998, 4133.33333306, 4163.07692287, 4131.28205101, 4132.94871767, 4117.17948691, 4167.82051262, 4154.61538441, 4155.38461518, 4117.30769203,0
4127.56410229, 4123.71794844, 4129.99999973, 4135.38461518, 4135.51282031, 4132.69230742, 4162.82051262, 4137.56410236, 4135.38461518, 4123.33333306, 4154.99999980, 4153.84615364, 4161.02564082, 4120.76923050,0
4132.69230742, 4122.56410229, 4126.53846126, 4134.48717921, 4115.51282024, 4105.76923050, 4150.76923056, 4112.69230742, 4116.41025614, 4133.84615357, 4156.53846133, 4149.35897415, 4146.15384595, 4125.76923050,0
4127.94871767, 4116.92307665, 4128.33333306, 4142.43589723, 4110.76923050, 4106.02564075, 4156.15384595, 4104.87179460, 4112.94871767, 4135.76923056, 4178.46153833, 4150.25641005, 4133.97435870, 4116.02564075,0
4131.28205101, 4107.17948691, 4120.51282024, 4124.99999973, 4106.79487152, 4101.41025607, 4157.69230749, 4109.99999973, 4112.69230742, 4114.99999973, 4152.94871774, 4139.48717928, 4135.76923056, 4126.15384588,0
4134.10256383, 4129.48717921, 4127.43589716, 4137.56410236, 4095.38461504, 4107.82051255, 4168.20512807, 4115.12820485, 4117.43589716, 4111.02564075, 4127.30769203, 4147.17948697, 4152.43589723, 4123.46153819,0
4134.74358947, 4154.61538441, 4150.89743569, 4178.07692294, 4118.46153819, 4129.61538434, 4180.89743576, 4122.17948691, 4127.69230742, 4128.97435870, 4163.07692287, 4167.82051262, 4158.33333313, 4121.66666639,0
4131.15384588, 4129.74358947, 4138.33333313, 4156.41025621, 4139.87179467, 4115.12820485, 4160.89743569, 4112.82051255, 4117.69230742, 4121.15384588, 4174.35897422, 4148.84615364, 4134.10256383, 4130.25640998,0
4116.79487152, 4112.30769203, 4120.64102537, 4127.94871767, 4124.48717921, 4105.89743562, 4150.89743569, 4103.71794844, 4108.71794844, 4114.87179460, 4154.10256390, 4137.82051262, 4129.10256383, 4120.25640998,0
4129.87179460, 4123.97435870, 4130.51282024, 4139.10256390, 4096.79487145, 4109.87179460, 4162.82051262, 4106.79487152, 4115.25640998, 4118.58974332, 4151.15384595, 4153.33333313, 4149.74358954, 4124.99999973,0
4138.46153826, 4132.05128178, 4137.43589723, 4144.61538441, 4096.92307658, 4098.33333299, 4162.56410236, 4113.46153819, 4122.43589716, 4119.74358947, 4155.51282031, 4154.35897415, 4154.35897415, 4124.74358947,0
4130.51282024, 4128.33333306, 4138.20512800, 4143.84615364, 4108.46153819, 4107.56410229, 4159.74358954, 4121.66666639, 4125.12820485, 4126.66666639, 4159.99999980, 4150.51282031, 4151.41025621, 4118.20512793,0
4135.25640998, 4124.61538434, 4136.02564082, 4145.51282031, 4114.10256383, 4128.46153819, 4164.74358954, 4125.38461511, 4126.92307665, 4135.25640998, 4168.20512807, 4155.76923056, 4164.10256390, 4125.89743562,0
4130.38461511, 4134.48717921, 4135.51282031, 4147.30769210, 4131.79487152, 4123.07692280, 4171.53846140, 4131.41025614, 4131.79487152, 4142.69230749, 4177.17948704, 4166.92307672, 4172.56410243, 4119.87179460,0
4129.61538434, 4133.84615357, 4135.89743569, 4141.28205108, 4138.84615364, 4105.38461511, 4158.46153826, 4127.69230742, 4124.10256383, 4132.94871767, 4170.12820499, 4162.56410236, 4154.10256390, 4123.33333306,0
4133.84615357, 4125.25640998, 4139.74358954, 4137.56410236, 4116.53846126, 4110.64102537, 4154.87179467, 4116.41025614, 4118.33333306, 4128.07692280, 4169.87179474, 4158.84615364, 4150.76923056, 4124.23076896,0
4131.02564075, 4122.56410229, 4143.84615364, 4136.28205108, 4094.48717914, 4118.71794844, 4174.48717935, 4117.94871767, 4127.56410229, 4135.76923056, 4177.82051269, 4167.56410236, 4162.56410236, 4116.79487152,0
4137.17948697, 4123.33333306, 4133.46153819, 4125.38461511, 4088.20512786, 4106.66666639, 4169.10256397, 4118.46153819, 4122.56410229, 4123.71794844, 4163.84615364, 4156.28205108, 4139.48717928, 4126.15384588,0
4129.23076896, 4127.17948691, 4126.79487152, 4127.94871767, 4096.41025607, 4106.66666639, 4152.17948697, 4113.20512793, 4111.28205101, 4116.53846126, 4151.53846133, 4144.74358954, 4123.71794844, 4119.61538434,0
4130.51282024, 4117.94871767, 4132.82051255, 4139.48717928, 4119.87179460, 4109.74358947, 4145.38461518, 4106.28205101, 4113.84615357, 4121.28205101, 4153.97435877, 4151.92307672, 4136.79487159, 4119.99999973,0
4145.76923056, 4122.94871767, 4143.20512800, 4149.10256390, 4137.30769210, 4109.74358947, 4149.35897415, 4108.20512793, 4123.46153819, 4126.53846126, 4171.15384602, 4166.53846133, 4152.05128185, 4123.97435870,0
4139.23076903, 4150.25641005, 4149.61538441, 4155.76923056, 4128.97435870, 4116.92307665, 4153.46153826, 4114.61538434, 4123.97435870, 4137.17948697, 4188.20512807, 4174.74358961, 4158.20512800, 4116.53846126,0
4139.10256390, 4141.41025621, 4143.58974339, 4148.71794851, 4108.97435870, 4104.61538434, 4142.30769210, 4111.66666639, 4114.61538434, 4129.48717921, 4172.94871781, 4164.61538441, 4142.56410236, 4127.05128178,0
4144.61538441, 4127.17948691, 4148.97435877, 4155.76923056, 4111.15384588, 4106.53846126, 4152.69230749, 4119.99999973, 4123.71794844, 4127.56410229, 4164.10256390, 4165.89743569, 4148.20512800, 4119.87179460,0
4150.38461518, 4147.17948697, 4156.92307672, 4155.12820492, 4105.25640998, 4128.71794844, 4172.69230756, 4128.58974332, 4136.15384595, 4144.10256390, 4176.53846140, 4173.71794858, 4167.30769210, 4115.38461511,0
4147.30769210, 4144.35897415, 4140.12820492, 4132.05128178, 4095.51282017, 4121.79487152, 4165.76923056, 4120.64102537, 4127.56410229, 4139.99999980, 4176.79487166, 4163.84615364, 4148.20512800, 4123.97435870,0
4131.92307665, 4123.71794844, 4128.58974332, 4132.43589716, 4124.35897408, 4107.43589716, 4158.58974339, 4117.94871767, 4120.76923050, 4128.07692280, 4171.41025628, 4157.17948697, 4130.38461511, 4116.79487152,0
4137.94871774, 4118.58974332, 4130.25640998, 4140.51282031, 4127.94871767, 4106.28205101, 4153.97435877, 4116.79487152, 4115.76923050, 4119.23076896, 4158.71794851, 4150.89743569, 4131.53846126, 4123.58974332,0
4136.79487159, 4126.79487152, 4129.61538434, 4142.94871774, 4107.69230742, 4115.12820485, 4148.58974339, 4116.79487152, 4115.12820485, 4120.12820485, 4149.35897415, 4145.89743569, 4129.74358947, 4122.82051255,0
4132.56410229, 4137.69230749, 4131.02564075, 4154.87179467, 4105.89743562, 4116.41025614, 4160.76923056, 4124.87179460, 4122.05128178, 4128.20512793, 4154.87179467, 4149.87179467, 4126.28205101, 4120.25640998,0
4140.51282031, 4146.02564082, 4132.94871767, 4156.28205108, 4106.53846126, 4114.10256383, 4173.46153833, 4127.82051255, 4125.89743562, 4126.92307665, 4154.10256390, 4146.28205108, 4124.99999973, 4123.97435870,0
4130.25640998, 4144.61538441, 4131.28205101, 4137.05128185, 4119.61538434, 4126.02564075, 4164.48717928, 4124.74358947, 4126.66666639, 4126.02564075, 4148.71794851, 4138.33333313, 4122.69230742, 4115.12820485,0
4123.20512793, 4115.89743562, 4117.43589716, 4117.56410229, 4122.94871767, 4109.87179460, 4138.97435877, 4109.35897408, 4114.35897408, 4122.05128178, 4142.69230749, 4128.58974332, 4116.02564075, 4124.74358947,0
4130.12820485, 4113.97435870, 4116.79487152, 4131.53846126, 4104.10256383, 4088.33333299, 4149.23076903, 4101.41025607, 4117.43589716, 4130.12820485, 4152.43589723, 4135.89743569, 4130.38461511, 4125.51282024,0
4136.66666646, 4140.51282031, 4132.94871767, 4144.48717928, 4110.64102537, 4102.69230742, 4174.74358961, 4121.53846126, 4139.74358954, 4140.51282031, 4168.20512807, 4149.87179467, 4143.07692287, 4117.94871767,0
4136.66666646, 4131.28205101, 4125.64102537, 4123.97435870, 4121.15384588, 4108.20512793, 4151.15384595, 4126.41025614, 4133.71794844, 4129.35897408, 4156.53846133, 4136.66666646, 4129.74358947, 4125.12820485,0
4123.84615357, 4116.79487152, 4118.84615357, 4128.97435870, 4112.05128178, 4102.69230742, 4130.25640998, 4110.51282024, 4116.53846126, 4132.17948691, 4152.43589723, 4133.84615357, 4132.30769203, 4119.61538434,0
4128.46153819, 4117.17948691, 4124.61538434, 4143.97435877, 4100.38461504, 4097.82051248, 4149.23076903, 4107.94871767, 4114.87179460, 4136.79487159, 4153.84615364, 4138.71794851, 4131.15384588, 4123.20512793,0
4133.97435870, 4116.41025614, 4117.30769203, 4130.38461511, 4105.64102537, 4100.89743555, 4159.48717928, 4118.84615357, 4121.15384588, 4125.76923050, 4134.99999973, 4125.51282024, 4111.92307665, 4122.56410229,0
4128.97435870, 4123.97435870, 4117.05128178, 4128.84615357, 4110.25640998, 4115.64102537, 4147.43589723, 4116.28205101, 4119.99999973, 4122.17948691, 4131.41025614, 4128.84615357, 4114.48717921, 4116.41025614,0
4142.69230749, 4131.02564075, 4125.64102537, 4133.07692280, 4097.17948684, 4114.35897408, 4148.97435877, 4109.87179460, 4116.15384588, 4118.58974332, 4141.79487159, 4136.15384595, 4121.02564075, 4126.28205101,0
4140.12820492, 4130.25640998, 4124.48717921, 4129.48717921, 4113.20512793, 4114.35897408, 4171.53846140, 4130.64102537, 4129.48717921, 4125.51282024, 4143.20512800, 4128.46153819, 4118.46153819, 4119.74358947,0
4128.33333306, 4126.53846126, 4113.71794844, 4125.89743562, 4129.74358947, 4115.38461511, 4166.92307672, 4133.46153819, 4129.48717921, 4128.07692280, 4136.02564082, 4119.48717921, 4113.20512793, 4119.61538434,0
4128.58974332, 4123.07692280, 4103.58974332, 4124.99999973, 4108.33333306, 4108.46153819, 4144.74358954, 4110.76923050, 4112.82051255, 4112.94871767, 4125.51282024, 4114.87179460, 4104.87179460, 4126.41025614,0
4123.20512793, 4124.87179460, 4102.69230742, 4126.02564075, 4097.05128171, 4099.61538427, 4138.71794851, 4109.61538434, 4109.99999973, 4110.25640998, 4113.33333306, 4112.30769203, 4107.30769203, 4120.38461511,0
4131.02564075, 4121.92307665, 4108.84615357, 4120.76923050, 4105.89743562, 4094.23076889, 4126.53846126, 4108.33333306, 4109.87179460, 4108.71794844, 4118.20512793, 4111.79487152, 4111.02564075, 4129.23076896,0
4139.48717928, 4124.10256383, 4125.64102537, 4128.33333306, 4111.15384588, 4115.38461511, 4135.89743569, 4113.33333306, 4119.23076896, 4115.64102537, 4162.56410236, 4136.41025621, 4124.35897408, 4126.28205101,0
4136.79487159, 4130.25640998, 4133.46153819, 4132.94871767, 4103.07692280, 4116.92307665, 4158.58974339, 4129.99999973, 4129.61538434, 4130.12820485, 4179.87179474, 4152.05128185, 4136.41025621, 4121.28205101,0
4136.28205108, 4130.12820485, 4123.46153819, 4122.05128178, 4111.02564075, 4093.97435863, 4139.87179467, 4121.41025614, 4117.30769203, 4126.15384588, 4145.12820492, 4135.12820485, 4130.76923050, 4125.89743562,0
4137.94871774, 4134.23076896, 4125.76923050, 4123.46153819, 4119.61538434, 4113.46153819, 4133.97435870, 4113.07692280, 4117.43589716, 4125.76923050, 4137.30769210, 4137.05128185, 4141.41025621, 4117.43589716,0
4150.51282031, 4136.02564082, 4133.84615357, 4121.92307665, 4093.46153812, 4127.82051255, 4172.30769217, 4127.17948691, 4132.82051255, 4130.12820485, 4149.10256390, 4146.92307672, 4145.12820492, 4124.99999973,0
4143.20512800, 4131.92307665, 4132.17948691, 4117.56410229, 4091.02564068, 4108.97435870, 4181.66666653, 4129.87179460, 4127.56410229, 4130.38461511, 4147.05128185, 4141.53846133, 4126.41025614, 4123.97435870,0
4121.92307665, 4113.20512793, 4117.43589716, 4103.97435870, 4126.15384588, 4116.02564075, 4144.74358954, 4108.71794844, 4108.07692280, 4119.74358947, 4135.89743569, 4123.71794844, 4113.71794844, 4117.17948691,0
4117.56410229, 4088.97435863, 4094.10256376, 4078.58974325, 4131.92307665, 4122.69230742, 4126.53846126, 4089.48717914, 4098.33333299, 4097.30769196, 4116.66666639, 4097.69230735, 4105.12820485, 4128.07692280,0
4115.12820485, 4099.23076889, 4097.17948684, 4090.76923043, 4118.71794844, 4108.84615357, 4148.71794851, 4098.07692273, 4109.23076896, 4099.48717914, 4114.23076896, 4099.99999966, 4104.74358947, 4117.69230742,0
4131.41025614, 4126.02564075, 4119.35897408, 4119.99999973, 4115.25640998, 4108.46153819, 4156.66666646, 4114.87179460, 4124.74358947, 4118.46153819, 4134.87179460, 4120.25640998, 4114.48717921, 4117.82051255,0
4143.07692287, 4132.56410229, 4126.53846126, 4128.84615357, 4112.94871767, 4119.48717921, 4152.05128185, 4121.15384588, 4128.58974332, 4129.99999973, 4152.69230749, 4129.61538434, 4135.25640998, 4122.43589716,0
4131.79487152, 4116.66666639, 4117.17948691, 4119.10256383, 4116.79487152, 4110.25640998, 4153.46153826, 4119.61538434, 4121.28205101, 4129.87179460, 4140.64102544, 4126.02564075, 4140.89743569, 4117.94871767,0
4138.97435877, 4108.84615357, 4112.69230742, 4105.12820485, 4106.28205101, 4099.99999966, 4153.71794851, 4118.46153819, 4119.35897408, 4122.43589716, 4129.74358947, 4122.43589716, 4128.84615357, 4125.51282024,0
4139.23076903, 4128.58974332, 4124.87179460, 4119.61538434, 4099.61538427, 4124.99999973, 4162.56410236, 4124.35897408, 4128.07692280, 4132.17948691, 4158.71794851, 4135.51282031, 4140.64102544, 4117.56410229,0
4133.20512793, 4123.58974332, 4128.58974332, 4128.58974332, 4119.99999973, 4129.48717921, 4153.33333313, 4119.48717921, 4121.92307665, 4136.41025621, 4166.92307672, 4135.25640998, 4147.82051262, 4121.15384588,0
4135.64102544, 4104.99999973, 4122.82051255, 4116.66666639, 4134.35897408, 4102.17948684, 4135.64102544, 4111.79487152, 4113.20512793, 4124.99999973, 4144.10256390, 4125.51282024, 4133.33333306, 4125.76923050,0
4131.53846126, 4110.38461511, 4122.82051255, 4115.25640998, 4116.02564075, 4088.97435863, 4142.94871774, 4110.76923050, 4114.35897408, 4119.10256383, 4142.43589723, 4125.89743562, 4126.92307665, 4117.05128178,0
4137.94871774, 4115.76923050, 4121.02564075, 4117.56410229, 4097.43589709, 4098.58974325, 4147.05128185, 4109.10256383, 4118.20512793, 4117.17948691, 4144.87179467, 4125.25640998, 4132.17948691, 4124.48717921,0
4138.97435877, 4128.84615357, 4126.41025614, 4124.74358947, 4118.07692280, 4131.28205101, 4146.66666646, 4127.05128178, 4139.61538441, 4141.41025621, 4151.02564082, 4140.64102544, 4158.33333313, 4118.71794844,0
4140.64102544, 4119.61538434, 4131.53846126, 4120.25640998, 4122.82051255, 4137.56410236, 4141.15384595, 4139.10256390, 4143.33333313, 4157.05128185, 4158.84615364, 4148.97435877, 4165.12820492, 4117.82051255,0
4139.99999980, 4088.97435863, 4116.66666639, 4100.76923043, 4117.82051255, 4103.84615357, 4123.71794844, 4118.84615357, 4119.23076896, 4129.61538434, 4144.23076903, 4127.30769203, 4134.99999973, 4122.56410229,0
4126.92307665, 4107.30769203, 4108.84615357, 4106.02564075, 4127.56410229, 4104.23076896, 4124.74358947, 4114.87179460, 4122.30769203, 4122.30769203, 4137.05128185, 4122.94871767, 4136.66666646, 4115.38461511,0
4141.02564082, 4129.61538434, 4119.23076896, 4117.30769203, 4109.74358947, 4128.58974332, 4157.69230749, 4136.66666646, 4137.43589723, 4142.56410236, 4147.30769210, 4136.28205108, 4160.12820492, 4125.38461511,0
4141.15384595, 4112.56410229, 4124.99999973, 4118.58974332, 4116.66666639, 4123.20512793, 4189.61538448, 4143.46153826, 4136.02564082, 4149.10256390, 4159.10256390, 4138.33333313, 4155.64102544, 4121.53846126,0
4125.89743562, 4111.41025614, 4118.58974332, 4118.97435870, 4136.53846133, 4114.35897408, 4194.35897422, 4135.89743569, 4131.28205101, 4137.56410236, 4159.61538441, 4131.66666639, 4144.48717928, 4118.71794844,0
4136.92307672, 4128.97435870, 4117.05128178, 4123.07692280, 4128.07692280, 4131.53846126, 4207.30769224, 4138.58974339, 4133.71794844, 4139.23076903, 4152.82051262, 4133.84615357, 4156.41025621, 4127.82051255,0
4139.61538441, 4121.41025614, 4127.43589716, 4130.89743562, 4132.17948691, 4134.87179460, 4234.87179488, 4136.41025621, 4132.30769203, 4147.82051262, 4149.23076903, 4142.30769210, 4158.07692287, 4118.97435870,0
4142.30769210, 4114.35897408, 4130.25640998, 4130.12820485, 4127.05128178, 4111.41025614, 4237.30769231, 4116.28205101, 4119.99999973, 4132.69230742, 4146.28205108, 4139.61538441, 4135.38461518, 4124.99999973,0
4142.82051262, 4138.97435877, 4137.69230749, 4135.89743569, 4121.66666639, 4122.94871767, 4245.38461539, 4126.53846126, 4128.71794844, 4138.84615364, 4159.61538441, 4147.82051262, 4155.38461518, 4122.82051255,0
4152.30769210, 4143.07692287, 4146.53846133, 4140.76923056, 4141.28205108, 4138.71794851, 4253.84615385, 4147.69230749, 4142.69230749, 4157.82051262, 4164.23076903, 4157.82051262, 4190.25641012, 4114.61538434,0
4196.66666653, 4110.76923050, 4128.33333306, 4127.43589716, 4122.94871767, 4119.61538434, 4226.28205122, 4126.28205101, 4130.12820485, 4145.38461518, 4147.56410236, 4139.23076903, 4166.92307672, 4126.02564075,0
4220.25641019, 4102.05128171, 4113.84615357, 4117.30769203, 4101.79487145, 4121.28205101, 4208.07692301, 4111.15384588, 4121.66666639, 4137.30769210, 4158.71794851, 4129.35897408, 4144.23076903, 4121.15384588,0
4215.64102558, 4104.48717921, 4113.46153819, 4107.94871767, 4120.89743562, 4122.94871767, 4214.61538455, 4117.94871767, 4122.05128178, 4132.94871767, 4162.56410236, 4127.94871767, 4147.82051262, 4124.10256383,0
4212.30769224, 4107.94871767, 4116.28205101, 4111.66666639, 4125.76923050, 4113.20512793, 4226.15384609, 4125.51282024, 4128.46153819, 4135.12820485, 4144.74358954, 4127.17948691, 4154.61538441, 4124.74358947,0
4215.64102558, 4127.30769203, 4123.33333306, 4118.46153819, 4120.64102537, 4121.15384588, 4236.79487180, 4138.84615364, 4140.64102544, 4149.99999980, 4150.64102544, 4135.38461518, 4157.43589723, 4118.20512793,0
4221.02564096, 4123.97435870, 4120.25640998, 4103.33333306, 4128.84615357, 4122.69230742, 4236.66666667, 4142.05128185, 4136.79487159, 4138.58974339, 4152.30769210, 4129.48717921, 4143.33333313, 4126.66666639,0
4203.20512814, 4110.25640998, 4115.89743562, 4107.56410229, 4123.20512793, 4122.82051255, 4242.56410257, 4136.79487159, 4127.94871767, 4128.71794844, 4143.20512800, 4123.84615357, 4144.35897415, 4117.69230742,0
4186.66666653, 4100.38461504, 4105.25640998, 4111.15384588, 4099.74358940, 4120.38461511, 4242.05128206, 4123.33333306, 4120.51282024, 4129.99999973, 4132.82051255, 4112.94871767, 4140.64102544, 4118.97435870,0
4188.58974345, 4088.84615350, 4092.43589709, 4092.17948684, 4104.99999973, 4108.20512793, 4223.20512814, 4112.82051255, 4116.66666639, 4120.25640998, 4125.64102537, 4097.43589709, 4120.12820485, 4126.02564075,0
4194.99999986, 4095.89743555, 4101.92307658, 4102.43589709, 4118.58974332, 4109.87179460, 4217.30769224, 4115.64102537, 4121.41025614, 4117.43589716, 4136.41025621, 4109.35897408, 4134.35897408, 4118.71794844,0
4202.43589737, 4110.51282024, 4107.69230742, 4115.12820485, 4106.92307665, 4109.99999973, 4216.28205122, 4111.53846126, 4117.69230742, 4114.99999973, 4134.87179460, 4114.35897408, 4143.33333313, 4126.53846126,0
4193.46153833, 4118.97435870, 4103.33333306, 4103.46153819, 4123.20512793, 4110.76923050, 4215.38461532, 4111.02564075, 4115.64102537, 4121.41025614, 4129.10256383, 4108.58974332, 4126.53846126, 4122.69230742,0
4192.69230756, 4101.92307658, 4110.64102537, 4098.58974325, 4137.43589723, 4109.87179460, 4212.94871788, 4114.61538434, 4117.94871767, 4132.43589716, 4135.12820485, 4112.82051255, 4122.94871767, 4120.89743562,0
4202.05128199, 4090.76923043, 4124.23076896, 4107.43589716, 4113.71794844, 4102.05128171, 4210.38461532, 4114.99999973, 4119.74358947, 4130.12820485, 4139.61538441, 4123.07692280, 4138.20512800, 4125.38461511,0
4200.12820499, 4113.46153819, 4131.53846126, 4110.12820485, 4101.79487145, 4112.82051255, 4227.94871788, 4125.51282024, 4130.64102537, 4136.02564082, 4146.66666646, 4135.38461518, 4150.38461518, 4117.56410229,0
4207.05128199, 4106.66666639, 4127.56410229, 4095.76923043, 4091.92307658, 4128.46153819, 4236.92307693, 4132.94871767, 4135.64102544, 4144.74358954, 4154.23076903, 4134.87179460, 4148.84615364, 4125.89743562,0
4193.71794858, 4080.12820478, 4117.69230742, 4094.48717914, 4089.23076889, 4126.41025614, 4221.92307686, 4127.43589716, 4127.43589716, 4138.58974339, 4150.25641005, 4121.02564075, 4144.23076903, 4124.23076896,0
4176.41025628, 4091.92307658, 4105.38461511, 4097.43589709, 4115.76923050, 4101.92307658, 4204.10256404, 4114.87179460, 4114.23076896, 4124.61538434, 4128.58974332, 4102.43589709, 4138.20512800, 4119.87179460,0
4194.35897422, 4123.07692280, 4109.10256383, 4099.23076889, 4145.51282031, 4103.33333306, 4206.02564096, 4118.07692280, 4117.56410229, 4119.35897408, 4122.94871767, 4102.30769196, 4142.82051262, 4123.58974332,0
4204.48717942, 4132.82051255, 4130.12820485, 4123.58974332, 4149.99999980, 4137.05128185, 4230.64102558, 4136.28205108, 4135.51282031, 4131.53846126, 4147.69230749, 4122.17948691, 4150.25641005, 4116.41025614,0
4195.38461525, 4119.23076896, 4125.76923050, 4131.66666639, 4129.35897408, 4133.58974332, 4250.89743590, 4125.76923050, 4126.53846126, 4130.38461511, 4147.82051262, 4115.25640998, 4129.10256383, 4124.87179460,0
4189.61538448, 4113.58974332, 4111.41025614, 4122.56410229, 4113.97435870, 4123.20512793, 4277.69230777, 4112.82051255, 4117.82051255, 4123.20512793, 4129.10256383, 4103.20512793, 4118.84615357, 4126.02564075,0
4199.87179474, 4110.51282024, 4119.35897408, 4122.17948691, 4117.30769203, 4133.46153819, 4289.35897443, 4127.30769203, 4128.84615357, 4122.69230742, 4130.12820485, 4113.07692280, 4135.12820485, 4121.79487152,0
4200.38461525, 4107.56410229, 4122.05128178, 4124.74358947, 4137.69230749, 4129.74358947, 4256.92307693, 4126.53846126, 4125.25640998, 4116.92307665, 4138.46153826, 4114.61538434, 4135.51282031, 4124.48717921,0
4185.64102551, 4126.15384588, 4118.58974332, 4123.07692280, 4145.38461518, 4124.48717921, 4227.82051275, 4113.97435870, 4119.74358947, 4125.76923050, 4141.41025621, 4113.97435870, 4133.58974332, 4117.43589716,0
4191.92307679, 4138.07692287, 4125.38461511, 4116.02564075, 4132.05128178, 4132.56410229, 4234.10256411, 4121.92307665, 4126.15384588, 4137.94871774, 4143.20512800, 4124.48717921, 4158.84615364, 4116.41025614,0
4200.76923063, 4121.41025614, 4129.87179460, 4117.17948691, 4124.99999973, 4137.30769210, 4256.02564103, 4129.48717921, 4129.23076896, 4135.12820485, 4142.05128185, 4128.33333306, 4169.48717935, 4128.71794844,0
4207.82051275, 4100.89743555, 4125.38461511, 4120.89743562, 4106.02564075, 4121.41025614, 4259.48717949, 4122.30769203, 4126.41025614, 4131.53846126, 4137.82051262, 4119.61538434, 4137.43589723, 4138.71794851,0
4179.99999986, 4119.48717921, 4139.23076903, 4144.61538441, 4118.58974332, 4127.94871767, 4263.97435898, 4147.30769210, 4150.51282031, 4168.46153833, 4166.53846133, 4144.35897415, 4155.25641005, 4084.74358940,0
4199.61538448, 4110.51282024, 4135.38461518, 4120.76923050, 4139.23076903, 4114.35897408, 4226.79487173, 4145.38461518, 4139.99999980, 4161.41025621, 4168.58974345, 4142.56410236, 4176.02564089, 4135.25640998,0
4252.43589744, 4070.38461504, 4087.17948684, 4049.10256369, 4100.64102530, 4076.41025607, 4176.79487166, 4094.87179453, 4089.35897402, 4083.46153812, 4108.71794844, 4080.12820478, 4120.76923050, 4202.05128199,0
4143.20512800, 4142.82051262, 4117.94871767, 4120.51282024, 4127.05128178, 4162.30769210, 4262.05128206, 4137.94871774, 4134.48717921, 4141.41025621, 4143.07692287, 4126.02564075, 4154.48717928, 4034.61538413,0
4142.43589723, 4145.76923056, 4142.94871774, 4154.61538441, 4139.48717928, 4176.92307679, 4274.10256418, 4154.23076903, 4149.87179467, 4166.92307672, 4161.66666646, 4150.25641005, 4169.10256397, 4077.17948684,0
4227.56410250, 4058.84615343, 4084.23076889, 4079.23076889, 4110.12820485, 4078.71794837, 4171.66666653, 4094.74358940, 4101.66666632, 4083.20512786, 4105.25640998, 4078.33333299, 4099.35897402, 4194.10256397,0
4164.48717928, 4097.30769196, 4098.71794837, 4114.10256383, 4148.84615364, 4106.15384588, 4195.76923063, 4114.74358947, 4124.99999973, 4127.05128178, 4137.30769210, 4103.71794844, 4136.41025621, 4096.41025607,0
4181.92307679, 4117.43589716, 4112.94871767, 4116.15384588, 4127.05128178, 4124.48717921, 4222.43589737, 4117.56410229, 4119.99999973, 4142.43589723, 4132.43589716, 4108.46153819, 4142.17948697, 4133.97435870,0
4205.64102558, 4103.20512793, 4086.92307658, 4080.89743555, 4107.43589716, 4114.23076896, 4208.33333327, 4101.79487145, 4107.17948691, 4111.53846126, 4106.79487152, 4083.20512786, 4111.53846126, 4151.02564082,0
4197.56410243, 4103.07692280, 4103.33333306, 4099.23076889, 4122.30769203, 4123.20512793, 4223.58974352, 4120.38461511, 4131.15384588, 4131.53846126, 4144.48717928, 4111.66666639, 4143.71794851, 4132.56410229,0
4226.66666660, 4066.02564061, 4111.28205101, 4100.89743555, 4097.82051248, 4096.92307658, 4238.20512821, 4114.48717921, 4130.64102537, 4131.79487152, 4147.05128185, 4112.30769203, 4149.48717928, 4168.07692287,0
4211.02564096, 4073.58974325, 4112.56410229, 4110.64102537, 4119.99999973, 4102.05128171, 4277.17948725, 4115.89743562, 4132.69230742, 4149.10256390, 4147.94871774, 4115.51282024, 4153.33333313, 4143.07692287,0
4232.94871788, 4102.94871767, 4115.12820485, 4107.17948691, 4124.10256383, 4098.33333299, 4294.48717956, 4122.56410229, 4126.41025614, 4141.15384595, 4146.15384595, 4115.89743562, 4151.53846133, 4162.17948697,0
4245.12820513, 4107.17948691, 4118.58974332, 4099.61538427, 4099.48717914, 4093.71794837, 4285.38461546, 4130.12820485, 4125.38461511, 4124.35897408, 4139.74358954, 4117.56410229, 4145.76923056, 4159.48717928,0
4238.58974359, 4101.53846119, 4128.71794844, 4104.23076896, 4099.23076889, 4110.12820485, 4289.61538469, 4131.92307665, 4131.28205101, 4138.07692287, 4149.99999980, 4130.89743562, 4154.48717928, 4151.79487159,0
4250.25641026, 4095.89743555, 4122.69230742, 4100.64102530, 4100.38461504, 4097.69230735, 4281.41025648, 4109.48717921, 4117.56410229, 4128.97435870, 4143.84615364, 4121.66666639, 4145.38461518, 4170.38461525,0
4228.33333327, 4099.10256376, 4114.48717921, 4103.33333306, 4107.94871767, 4086.53846119, 4265.51282052, 4100.76923043, 4112.94871767, 4115.64102537, 4133.07692280, 4114.99999973, 4134.35897408, 4150.12820492,0
4226.92307686, 4080.51282017, 4089.74358940, 4081.41025607, 4101.53846119, 4072.69230735, 4237.43589744, 4088.33333299, 4097.69230735, 4081.79487145, 4101.28205094, 4084.61538427, 4096.15384581, 4167.30769210,0
4220.38461532, 4076.79487145, 4068.71794830, 4076.15384581, 4096.28205094, 4069.10256369, 4224.99999993, 4077.69230735, 4087.82051248, 4060.76923036, 4078.46153812, 4058.07692266, 4075.12820478, 4160.51282031,0
4207.05128199, 4100.76923043, 4080.76923043, 4105.51282024, 4086.28205094, 4082.30769196, 4244.61538462, 4085.25640991, 4100.76923043, 4076.02564068, 4090.76923043, 4074.35897402, 4095.51282017, 4141.79487159,0
4218.07692301, 4087.17948684, 4070.38461504, 4097.56410222, 4064.23076882, 4066.28205087, 4248.33333334, 4067.94871754, 4091.79487145, 4064.61538420, 4084.87179453, 4066.53846113, 4077.30769196, 4161.28205108,0
4186.79487166, 4072.69230735, 4054.48717907, 4089.35897402, 4098.97435863, 4057.30769189, 4248.20512821, 4058.46153805, 4088.20512786, 4064.35897395, 4084.10256376, 4052.43589702, 4062.17948677, 4136.66666646,0
4192.30769217, 4069.99999966, 4061.79487138, 4086.28205094, 4102.30769196, 4054.61538420, 4248.46153847, 4068.07692266, 4093.97435863, 4076.66666632, 4087.56410222, 4054.87179446, 4072.94871761, 4144.10256390,0
4219.87179481, 4067.17948677, 4071.41025607, 4084.48717914, 4053.46153805, 4063.58974318, 4266.66666674, 4074.35897402, 4099.87179453, 4085.51282017, 4086.02564068, 4067.69230728, 4086.66666632, 4147.30769210,0
4194.61538448, 4075.64102530, 4075.51282017, 4102.82051255, 4075.76923043, 4085.51282017, 4275.12820520, 4077.43589709, 4104.23076896, 4096.66666632, 4098.58974325, 4082.82051248, 4097.17948684, 4120.89743562,0
4192.82051269, 4067.56410215, 4066.79487138, 4096.41025607, 4102.05128171, 4069.10256369, 4225.76923070, 4071.92307658, 4095.51282017, 4081.15384581, 4097.17948684, 4067.05128164, 4078.33333299, 4142.30769210,0
4196.53846140, 4086.79487145, 4082.94871761, 4116.79487152, 4088.84615350, 4078.07692273, 4218.33333327, 4094.87179453, 4111.92307665, 4097.56410222, 4112.43589716, 4084.23076889, 4093.07692273, 4124.10256383,0
4200.51282038, 4111.79487152, 4103.33333306, 4143.46153826, 4087.17948684, 4101.28205094, 4238.20512821, 4113.07692280, 4119.61538434, 4117.05128178, 4122.82051255, 4112.17948691, 4117.05128178, 4116.15384588,0
4198.20512807, 4098.07692273, 4089.74358940, 4121.79487152, 4093.20512786, 4081.28205094, 4218.46153840, 4099.74358940, 4104.87179460, 4096.53846119, 4103.58974332, 4094.87179453, 4098.33333299, 4126.79487152,0
4173.46153833, 4094.61538427, 4090.25640991, 4116.41025614, 4096.53846119, 4072.05128171, 4213.58974352, 4108.46153819, 4117.05128178, 4103.97435870, 4112.05128178, 4094.35897402, 4093.97435863, 4108.46153819,0
4184.35897422, 4087.30769196, 4091.41025607, 4109.99999973, 4078.84615350, 4074.35897402, 4215.25641019, 4107.30769203, 4120.12820485, 4104.74358947, 4111.15384588, 4091.28205094, 4095.89743555, 4126.41025614,0
4179.99999986, 4082.56410222, 4082.56410222, 4098.46153812, 4078.07692273, 4088.84615350, 4214.87179481, 4089.61538427, 4112.17948691, 4092.30769196, 4092.17948684, 4078.58974325, 4092.82051248, 4119.61538434,0
4173.58974345, 4082.82051248, 4080.25640991, 4087.82051248, 4089.35897402, 4099.74358940, 4210.76923070, 4083.58974325, 4107.94871767, 4088.84615350, 4087.05128171, 4075.76923043, 4086.02564068, 4120.51282024,0
4178.20512807, 4067.43589702, 4067.69230728, 4076.15384581, 4083.58974325, 4080.76923043, 4192.82051269, 4079.61538427, 4098.07692273, 4076.53846119, 4085.25640991, 4063.20512779, 4072.43589709, 4133.07692280,0
4159.35897415, 4078.07692273, 4074.35897402, 4098.46153812, 4084.23076889, 4075.64102530, 4193.07692294, 4085.12820478, 4102.05128171, 4087.05128171, 4098.20512786, 4071.53846119, 4087.17948684, 4109.35897408,0
4183.20512807, 4092.05128171, 4085.51282017, 4096.92307658, 4074.61538427, 4072.82051248, 4197.17948704, 4087.56410222, 4104.87179460, 4095.12820478, 4094.61538427, 4078.33333299, 4098.20512786, 4132.17948691,0
4181.53846140, 4096.92307658, 4077.69230735, 4087.69230735, 4094.61538427, 4078.58974325, 4188.33333320, 4092.94871761, 4105.25640998, 4092.43589709, 4088.84615350, 4072.17948684, 4100.25640991, 4125.64102537,0
4159.23076903, 4086.41025607, 4071.41025607, 4102.94871767, 4096.79487145, 4083.71794837, 4166.92307672, 4089.10256376, 4099.74358940, 4081.02564068, 4092.94871761, 4063.84615343, 4084.87179453, 4117.43589716,0
4195.12820499, 4054.10256369, 4061.79487138, 4094.23076889, 4026.28205080, 4045.76923036, 4148.97435877, 4063.07692266, 4082.17948684, 4048.84615343, 4067.56410215, 4041.41025600, 4047.56410215, 4165.25641005,0
4197.56410243, 4057.30769189, 4056.66666625, 4092.05128171, 4020.38461490, 4028.20512772, 4161.79487159, 4055.76923036, 4078.33333299, 4040.12820472, 4048.20512779, 4033.46153798, 4047.05128164, 4162.82051262,0
4181.79487166, 4055.76923036, 4043.20512779, 4082.56410222, 4058.97435856, 4027.05128157, 4151.02564082, 4053.20512779, 4072.94871761, 4033.46153798, 4039.48717907, 4019.87179439, 4042.82051241, 4154.48717928,0
4164.48717928, 4039.10256369, 4034.61538413, 4074.61538427, 4064.61538420, 4031.41025593, 4131.92307665, 4058.71794830, 4081.28205094, 4038.33333292, 4046.41025600, 4017.94871747, 4035.12820465, 4132.82051255,0
4141.41025621, 4055.89743548, 4047.05128164, 4089.23076889, 4071.15384581, 4055.38461497, 4147.69230749, 4070.64102530, 4095.25640991, 4062.82051241, 4065.51282010, 4040.38461497, 4054.74358933, 4109.61538434,0
4145.76923056, 4069.87179453, 4046.79487138, 4087.43589709, 4065.25640984, 4057.56410215, 4159.99999980, 4058.71794830, 4084.35897402, 4053.20512779, 4059.87179446, 4038.97435856, 4050.38461497, 4118.46153819,0
4132.94871767, 4081.53846119, 4062.82051241, 4109.99999973, 4074.23076889, 4070.64102530, 4174.23076910, 4068.97435856, 4094.23076889, 4060.76923036, 4078.46153812, 4060.38461497, 4059.99999959, 4092.43589709,0
4139.23076903, 4096.02564068, 4089.74358940, 4135.89743569, 4103.97435870, 4081.41025607, 4166.15384595, 4089.48717914, 4105.38461511, 4085.38461504, 4103.07692280, 4091.15384581, 4092.17948684, 4100.76923043,0
4142.94871774, 4096.28205094, 4085.38461504, 4125.76923050, 4108.20512793, 4075.76923043, 4155.12820492, 4088.20512786, 4102.82051255, 4095.51282017, 4100.12820478, 4087.82051248, 4106.92307665, 4105.38461511,0
4127.82051255, 4094.61538427, 4083.58974325, 4120.76923050, 4087.56410222, 4086.41025607, 4186.41025628, 4093.84615350, 4116.66666639, 4113.33333306, 4103.84615357, 4088.71794837, 4111.92307665, 4084.87179453,0
4144.87179467, 4093.20512786, 4088.46153812, 4128.20512793, 4080.64102530, 4085.51282017, 4194.48717935, 4089.10256376, 4111.02564075, 4105.25640998, 4097.82051248, 4088.20512786, 4097.30769196, 4106.53846126,0
4129.74358947, 4098.71794837, 4084.87179453, 4134.35897408, 4108.84615357, 4085.38461504, 4189.99999986, 4086.41025607, 4103.71794844, 4095.51282017, 4095.25640991, 4086.66666632, 4094.35897402, 4095.89743555,0
4121.28205101, 4101.02564068, 4083.71794837, 4126.28205101, 4116.79487152, 4087.56410222, 4191.79487166, 4093.07692273, 4112.30769203, 4101.41025607, 4103.97435870, 4087.05128171, 4107.69230742, 4099.61538427,0
4142.69230749, 4117.17948691, 4097.05128171, 4138.58974339, 4104.87179460, 4093.97435863, 4196.79487166, 4098.84615350, 4116.28205101, 4107.30769203, 4114.87179460, 4098.71794837, 4124.23076896, 4108.46153819,0
4135.51282031, 4133.71794844, 4115.51282024, 4157.30769210, 4117.56410229, 4103.07692280, 4209.61538455, 4103.20512793, 4114.99999973, 4113.33333306, 4130.12820485, 4119.35897408, 4137.43589723, 4089.23076889,0
4130.12820485, 4097.30769196, 4095.89743555, 4118.97435870, 4106.79487152, 4074.23076889, 4193.07692294, 4083.46153812, 4094.74358940, 4086.92307658, 4114.48717921, 4095.25640991, 4107.30769203, 4110.12820485,0
4118.84615357, 4088.71794837, 4077.69230735, 4101.02564068, 4082.30769196, 4071.92307658, 4200.12820499, 4084.35897402, 4093.07692273, 4075.12820478, 4103.46153819, 4076.92307658, 4095.51282017, 4101.53846119,0
4117.30769203, 4104.87179460, 4085.51282017, 4113.33333306, 4080.76923043, 4092.43589709, 4208.33333327, 4102.56410229, 4106.02564075, 4084.61538427, 4102.43589709, 4089.10256376, 4110.64102537, 4096.53846119,0
4115.64102537, 4072.56410222, 4066.66666625, 4081.02564068, 4083.71794837, 4069.48717907, 4160.89743569, 4083.20512786, 4093.71794837, 4069.87179453, 4073.33333299, 4067.56410215, 4080.64102530, 4111.53846126,0
4096.53846119, 4069.35897395, 4056.02564061, 4073.71794837, 4094.61538427, 4063.97435856, 4145.76923056, 4072.43589709, 4090.25640991, 4081.53846119, 4072.05128171, 4057.94871754, 4066.92307651, 4094.61538427,0
4124.99999973, 4102.56410229, 4084.61538427, 4107.56410229, 4093.07692273, 4083.58974325, 4172.56410243, 4094.10256376, 4105.12820485, 4098.84615350, 4100.38461504, 4088.46153812, 4099.10256376, 4109.61538434,0
4136.79487159, 4114.48717921, 4105.76923050, 4122.82051255, 4099.23076889, 4092.56410222, 4171.53846140, 4110.76923050, 4120.12820485, 4101.66666632, 4112.43589716, 4112.82051255, 4123.58974332, 4107.82051255,0
4117.82051255, 4110.89743562, 4101.28205094, 4118.33333306, 4102.82051255, 4088.84615350, 4147.94871774, 4106.28205101, 4121.53846126, 4108.97435870, 4107.43589716, 4108.84615357, 4117.05128178, 4101.41025607,0
4130.89743562, 4108.97435870, 4096.79487145, 4117.17948691, 4079.74358940, 4080.12820478, 4131.66666639, 4099.48717914, 4114.87179460, 4107.17948691, 4100.25640991, 4096.15384581, 4102.05128171, 4115.89743562,0
4130.89743562, 4121.66666639, 4111.66666639, 4136.66666646, 4090.38461504, 4083.71794837, 4133.20512793, 4103.33333306, 4116.79487152, 4116.02564075, 4114.99999973, 4113.71794844, 4113.20512793, 4102.17948684,0
4130.64102537, 4126.15384588, 4113.33333306, 4138.58974339, 4102.43589709, 4080.12820478, 4132.82051255, 4097.94871761, 4109.10256383, 4110.51282024, 4121.53846126, 4122.43589716, 4115.76923050, 4111.28205101,0
4128.46153819, 4123.97435870, 4102.05128171, 4132.05128178, 4091.53846119, 4082.94871761, 4128.20512793, 4093.46153812, 4105.25640998, 4097.82051248, 4109.48717921, 4108.58974332, 4106.41025614, 4109.74358947,0
4117.17948691, 4126.41025614, 4107.69230742, 4135.51282031, 4093.84615350, 4098.33333299, 4130.89743562, 4101.66666632, 4114.48717921, 4105.38461511, 4108.71794844, 4110.38461511, 4111.53846126, 4098.33333299,0
4122.17948691, 4117.43589716, 4103.46153819, 4113.97435870, 4084.99999966, 4089.23076889, 4133.97435870, 4096.02564068, 4106.41025614, 4095.64102530, 4104.61538434, 4105.25640998, 4102.69230742, 4112.56410229,0
4111.02564075, 4114.35897408, 4092.56410222, 4104.48717921, 4080.51282017, 4085.64102530, 4139.10256390, 4091.02564068, 4096.92307658, 4087.43589709, 4099.48717914, 4097.82051248, 4097.43589709, 4102.30769196,0
4109.74358947, 4110.64102537, 4090.12820478, 4107.69230742, 4082.69230735, 4090.64102530, 4135.51282031, 4090.51282017, 4096.02564068, 4085.38461504, 4094.23076889, 4095.64102530, 4096.15384581, 4107.69230742,0
4106.92307665, 4095.51282017, 4075.76923043, 4088.46153812, 4073.46153812, 4082.30769196, 4117.17948691, 4082.30769196, 4090.89743555, 4071.15384581, 4081.79487145, 4078.20512786, 4078.20512786, 4114.48717921,0
4089.23076889, 4090.38461504, 4066.02564061, 4070.64102530, 4067.43589702, 4078.58974325, 4103.97435870, 4080.76923043, 4091.53846119, 4066.66666625, 4076.28205094, 4065.12820472, 4066.79487138, 4105.12820485,0
4109.10256383, 4099.48717914, 4076.02564068, 4069.99999966, 4071.02564068, 4080.12820478, 4099.61538427, 4088.58974325, 4101.92307658, 4080.76923043, 4075.89743555, 4071.53846119, 4074.87179453, 4118.84615357,0
4124.23076896, 4126.15384588, 4097.30769196, 4094.10256376, 4090.89743555, 4094.87179453, 4103.97435870, 4114.23076896, 4122.94871767, 4110.51282024, 4093.97435863, 4094.87179453, 4105.25640998, 4110.12820485,0
4118.97435870, 4137.30769210, 4107.69230742, 4110.89743562, 4097.94871761, 4103.97435870, 4106.15384588, 4126.92307665, 4128.33333306, 4121.02564075, 4111.53846126, 4105.38461511, 4119.23076896, 4107.82051255,0
4115.89743562, 4125.89743562, 4096.15384581, 4100.64102530, 4087.69230735, 4097.56410222, 4111.79487152, 4109.99999973, 4112.17948691, 4105.64102537, 4103.46153819, 4091.92307658, 4104.48717921, 4116.79487152,0
4105.76923050, 4131.28205101, 4091.02564068, 4095.76923043, 4094.35897402, 4098.84615350, 4121.02564075, 4102.05128171, 4110.51282024, 4105.76923050, 4101.53846119, 4090.64102530, 4103.46153819, 4105.64102537,0
4107.17948691, 4127.56410229, 4090.76923043, 4087.05128171, 4088.58974325, 4089.61538427, 4102.17948684, 4098.46153812, 4107.56410229, 4100.89743555, 4096.92307658, 4088.58974325, 4099.48717914, 4116.28205101,0
4100.51282017, 4112.43589716, 4083.84615350, 4072.56410222, 4073.71794837, 4082.05128171, 4073.07692273, 4091.02564068, 4095.64102530, 4086.15384581, 4085.76923043, 4079.35897402, 4087.30769196, 4115.38461511,0
4088.84615350, 4113.58974332, 4076.02564068, 4061.66666625, 4070.64102530, 4083.84615350, 4056.28205087, 4084.99999966, 4092.43589709, 4081.41025607, 4083.58974325, 4074.48717914, 4082.05128171, 4109.10256383,0
4081.15384581, 4095.25640991, 4049.74358933, 4029.87179439, 4050.25640984, 4057.43589702, 4032.17948670, 4064.48717907, 4081.41025607, 4061.28205087, 4057.82051241, 4046.92307651, 4057.43589702, 4118.07692280,0
4054.99999959, 4054.87179446, 4011.02564054, 3987.43589688, 4017.17948670, 4019.87179439, 4009.48717900, 4040.51282010, 4061.53846113, 4032.43589695, 4016.79487131, 4009.35897388, 4020.38461490, 4109.61538434,0
4040.51282010, 4019.74358926, 3978.20512765, 3947.43589681, 3983.46153791, 3986.53846099, 3980.89743535, 4019.61538413, 4045.64102523, 4009.23076875, 3992.17948663, 3977.82051227, 3987.17948663, 4114.23076896,0
4026.53846106, 3992.56410201, 3945.12820451, 3906.15384546, 3950.64102502, 3945.76923015, 3930.76923008, 3986.53846099, 4028.46153798, 3980.64102509, 3967.05128143, 3939.74358912, 3949.61538399, 4119.23076896,0
4004.74358926, 3970.38461476, 3917.69230700, 3874.35897360, 3927.94871726, 3909.61538392, 3877.56410180, 3951.53846092, 4003.58974304, 3946.41025579, 3929.23076854, 3903.20512744, 3911.79487110, 4116.79487152,0
3998.46153791, 3944.99999938, 3889.87179411, 3843.97435814, 3900.64102488, 3876.15384539, 3837.17948628, 3927.43589674, 3980.12820458, 3907.56410187, 3886.79487103, 3868.07692225, 3869.99999917, 4124.48717921,0
3973.97435842, 3906.02564033, 3847.05128122, 3799.10256313, 3857.30769148, 3833.33333243, 3810.64102474, 3899.87179411, 3962.56410194, 3864.74358891, 3843.58974276, 3823.07692218, 3820.25640936, 4119.23076896,0
3942.30769169, 3851.79487096, 3795.51281954, 3740.38461428, 3803.20512724, 3776.66666570, 3773.33333229, 3858.07692225, 3936.28205059, 3816.02564013, 3794.99999903, 3767.43589640, 3768.07692204, 4119.87179460,0
3923.84615316, 3809.23076833, 3751.28205024, 3695.25640908, 3759.23076819, 3729.35897325, 3737.69230658, 3824.99999910, 3916.02564033, 3781.02564006, 3755.76922973, 3721.41025530, 3732.43589633, 4123.58974332,0
3904.74358898, 3786.79487083, 3722.69230658, 3668.84615260, 3731.92307582, 3708.33333216, 3734.35897325, 3814.87179397, 3914.48717880, 3768.71794768, 3738.58974248, 3695.51281934, 3714.10256299, 4118.20512793,0
3899.74358898, 3768.33333229, 3708.07692190, 3641.41025509, 3711.41025530, 3694.74358857, 3737.17948607, 3805.89743493, 3908.20512751, 3757.30769127, 3728.46153735, 3679.99999882, 3696.66666549, 4122.05128178,0
3891.53846078, 3753.20512717, 3696.66666549, 3619.99999868, 3698.84615267, 3677.05128087, 3717.56410146, 3792.69230672, 3894.99999924, 3745.12820409, 3711.66666556, 3666.28205004, 3684.10256293, 4117.94871767,0
3862.94871712, 3716.02563992, 3661.66666542, 3586.79487041, 3666.28205004, 3641.41025509, 3673.58974234, 3766.15384512, 3874.61538385, 3714.74358864, 3673.71794747, 3630.64102432, 3653.07692183, 4116.79487152,0
3833.20512731, 3656.02563978, 3607.69230631, 3532.69230617, 3613.33333202, 3590.38461400, 3631.66666535, 3723.20512710, 3843.58974276, 3661.53846029, 3625.25640894, 3573.07692162, 3593.20512682, 4122.30769203,0
3798.84615288, 3607.05128067, 3557.56410111, 3480.89743430, 3567.43589598, 3538.20512668, 3589.10256272, 3678.07692190, 3812.17948628, 3608.20512682, 3579.99999861, 3515.51281899, 3534.74358822, 4114.48717921,0
3765.38461435, 3557.69230624, 3502.69230610, 3421.53845981, 3513.58974206, 3478.58974193, 3531.79487027, 3632.43589612, 3783.46153749, 3553.58974213, 3522.05128053, 3454.10256244, 3478.97435738, 4115.89743562,0
3740.76922966, 3505.38461379, 3456.53845987, 3364.61538274, 3459.87179321, 3431.53845981, 3496.15384456, 3596.02563964, 3764.87179383, 3508.97435738, 3473.97435731, 3406.66666486, 3433.07692134, 4119.99999973,0
3720.89743479, 3473.07692141, 3428.58974186, 3329.10256216, 3424.74358801, 3395.64102384, 3477.69230603, 3570.38461393, 3749.74358871, 3479.35897276, 3446.02563929, 3378.84615197, 3405.12820333, 4119.10256383,0
3707.69230651, 3449.87179321, 3399.74358794, 3300.25640825, 3394.10256230, 3352.94871608, 3441.15384442, 3542.05128053, 3728.33333223, 3446.02563929, 3412.17948538, 3346.02563908, 3374.87179300, 4122.17948691,0
3687.43589626, 3422.43589570, 3371.79486992, 3271.28204920, 3363.07692120, 3317.82051088, 3396.66666486, 3512.56410104, 3709.10256299, 3412.17948538, 3379.35897249, 3314.99999806, 3340.38461344, 4117.43589716,0
3670.89743465, 3397.82051102, 3351.53845967, 3247.56410041, 3337.43589549, 3291.66666466, 3357.94871608, 3492.82051123, 3699.23076805, 3386.15384435, 3357.69230582, 3293.07692107, 3316.79486985, 4116.28205101,0
3664.99999875, 3386.02563922, 3337.69230575, 3231.66666452, 3326.53845960, 3277.82051074, 3327.82051088, 3488.71794712, 3698.58974241, 3375.12820326, 3348.58974172, 3277.82051074, 3307.69230568, 4118.20512793,0
3645.38461414, 3367.30769044, 3319.87179293, 3206.41025419, 3318.71794678, 3269.61538253, 3303.46153645, 3476.15384449, 3688.07692190, 3368.33333146, 3339.35897242, 3260.25640818, 3293.20512619, 4114.35897408,0
3645.38461414, 3367.30769044, 3319.87179293, 3206.41025419, 3318.71794678, 3269.61538253, 3303.46153645, 3476.15384449, 3688.07692190, 3368.33333146, 3339.35897242, 3260.25640818, 3293.20512619, 4114.35897408,0
3623.20512689, 3330.51281857, 3289.35897235, 3167.69230540, 3289.23076722, 3238.20512605, 3274.99999792, 3442.43589570, 3663.58974234, 3337.94871601, 3309.23076722, 3228.84615170, 3261.66666459, 4117.56410229,0
3607.05128067, 3302.69230568, 3267.17948510, 3145.89743354, 3261.66666459, 3209.35897214, 3258.07692100, 3422.94871622, 3654.74358850, 3312.94871594, 3280.12820305, 3207.56410034, 3241.66666452, 4115.76923050,0
3600.12820374, 3291.15384414, 3262.94871587, 3133.71794636, 3250.51281843, 3204.10256188, 3258.33333125, 3423.58974186, 3657.43589619, 3313.46153645, 3276.28204920, 3202.43589522, 3238.20512605, 4114.74358947,0
3610.12820374, 3296.92307491, 3272.05127997, 3133.71794636, 3247.82051067, 3207.69230547, 3262.05127997, 3431.28204955, 3660.76922952, 3324.35897242, 3287.94871594, 3211.15384393, 3244.10256195, 4121.53846126,0
3614.61538330, 3308.46153645, 3283.20512619, 3154.87179258, 3250.12820305, 3212.05127983, 3268.97435689, 3440.51281878, 3667.05128080, 3337.30769037, 3288.71794671, 3224.48717734, 3255.64102356, 4118.71794844,0
3616.02563971, 3313.97435696, 3288.20512619, 3171.92307463, 3257.30769023, 3219.48717734, 3283.33333132, 3448.58974193, 3670.76922952, 3342.43589549, 3284.74358773, 3226.66666452, 3258.20512612, 4117.17948691,0
3629.35897304, 3342.94871601, 3311.41025440, 3199.87179265, 3286.41025440, 3246.41025426, 3311.53845953, 3469.74358808, 3685.89743472, 3363.97435710, 3314.61538260, 3247.30769016, 3277.94871587, 4116.92307665,0
3633.20512689, 3367.43589556, 3331.92307498, 3223.33333118, 3307.43589542, 3260.76922869, 3317.56410062, 3474.74358808, 3690.64102446, 3382.94871615, 3344.35897242, 3269.35897228, 3302.05128004, 4113.46153819,0
3616.02563971, 3343.20512626, 3307.30769030, 3198.58974137, 3287.17948517, 3235.12820298, 3283.33333132, 3440.89743416, 3660.12820388, 3353.20512633, 3315.38461344, 3242.43589529, 3270.64102356, 4114.99999973,0
3601.41025502, 3319.74358780, 3279.48717741, 3174.74358745, 3268.46153638, 3215.89743368, 3266.92307484, 3419.87179314, 3643.07692183, 3324.10256216, 3283.97435696, 3215.12820291, 3231.79486964, 4114.23076896,0
3594.87179349, 3310.12820312, 3271.79486971, 3168.71794643, 3256.92307484, 3205.76922855, 3259.74358766, 3419.99999827, 3649.10256286, 3326.53845960, 3281.15384407, 3212.43589522, 3230.25640811, 4118.07692280,0
3570.25640880, 3273.84615177, 3247.56410041, 3133.97435662, 3222.94871580, 3173.33333104, 3220.64102349, 3401.66666486, 3635.25640894, 3310.76922876, 3257.69230561, 3186.66666445, 3211.02563881, 4118.97435870,0
3553.97435752, 3247.30769016, 3225.25640811, 3104.10256167, 3199.23076701, 3151.53845925, 3201.28204906, 3383.71794692, 3618.07692176, 3282.05128004, 3228.20512605, 3157.30769002, 3175.64102335, 4115.25640998,0
3552.82051137, 3233.58974144, 3208.71794650, 3088.71794629, 3180.76922848, 3136.79486944, 3191.53845932, 3364.74358787, 3605.25640887, 3256.79486971, 3206.15384393, 3138.33333097, 3149.99999764, 4119.61538434,0
3518.58974206, 3178.58974130, 3161.53845925, 3032.69230513, 3120.38461303, 3076.41025391, 3119.48717713, 3314.35897235, 3569.87179342, 3205.12820291, 3161.15384386, 3090.76922834, 3102.94871552, 4118.97435870,0
3497.17948559, 3142.30768995, 3135.38461303, 2990.76922813, 3077.43589494, 3028.84615128, 3063.84615135, 3292.17948517, 3553.97435752, 3170.51281822, 3132.05127969, 3057.56410007, 3068.07692058, 4116.53846126,0
3526.53846001, 3189.23076701, 3176.28204899, 3032.94871538, 3113.58974116, 3067.69230519, 3111.28204885, 3330.64102370, 3587.69230631, 3209.99999778, 3168.71794643, 3097.43589501, 3107.82051039, 4117.05128178,0
3538.97435745, 3219.35897221, 3202.69230547, 3064.48717699, 3143.71794636, 3105.38461296, 3148.58974123, 3352.56410069, 3607.30769092, 3249.10256195, 3204.23076701, 3133.84615149, 3147.69230533, 4117.82051255,0
3520.25640873, 3183.07692079, 3174.48717720, 3031.28204871, 3119.48717713, 3082.43589494, 3115.64102321, 3337.43589549, 3589.61538323, 3232.56410041, 3184.74358752, 3109.23076680, 3122.56410021, 4122.94871767,0
3517.43589591, 3181.15384386, 3168.20512592, 3032.69230513, 3124.10256174, 3085.76922834, 3122.56410021, 3344.48717755, 3591.28204990, 3236.02563888, 3182.69230540, 3105.51281808, 3119.61538226, 4121.02564075,0
3529.23076771, 3210.25640804, 3186.53845932, 3064.23076673, 3148.58974123, 3109.99999757, 3148.20512585, 3351.02563915, 3600.25640887, 3259.23076715, 3202.56410034, 3129.87179251, 3144.48717713, 4119.48717921,0
3527.43589591, 3210.64102342, 3185.64102342, 3063.20512571, 3145.12820277, 3106.02563860, 3131.41025405, 3342.17948524, 3593.84615246, 3256.28204920, 3203.58974137, 3130.76922841, 3141.92307456, 4120.25640998,0
3517.56410104, 3209.35897214, 3184.99999778, 3060.38461289, 3149.10256174, 3114.35897193, 3128.33333097, 3359.48717761, 3599.74358836, 3257.69230561, 3204.10256188, 3127.56410021, 3137.69230533, 4117.05128178,0
3517.56410104, 3215.12820291, 3187.17948496, 3066.41025391, 3161.79486951, 3129.48717713, 3141.53845918, 3367.82051095, 3599.61538323, 3258.07692100, 3201.02563881, 3125.38461303, 3139.35897200, 4119.10256383,0
3523.58974206, 3229.74358759, 3198.58974137, 3082.17948468, 3173.71794643, 3135.25640790, 3143.07692072, 3356.02563915, 3591.15384477, 3257.43589536, 3206.66666445, 3133.84615149, 3148.71794636, 4116.79487152,0
3532.05128053, 3246.79486964, 3216.79486964, 3101.15384373, 3184.48717727, 3144.23076687, 3140.64102328, 3359.10256223, 3594.74358836, 3269.99999792, 3224.74358759, 3155.25640797, 3164.48717720, 4114.87179460,0
3532.69230617, 3245.25640811, 3218.97435682, 3104.87179244, 3187.30769009, 3151.28204899, 3135.12820277, 3361.79486992, 3597.05128067, 3274.87179279, 3225.64102349, 3160.25640797, 3166.92307463, 4117.17948691,0
3520.51281899, 3238.20512605, 3215.76922855, 3101.79486937, 3182.05127976, 3144.74358738, 3117.05127962, 3347.56410062, 3585.64102426, 3262.17948510, 3213.46153624, 3154.61538233, 3159.87179258, 4113.84615357,0
3520.25640873, 3233.33333118, 3219.10256195, 3096.92307449, 3168.58974130, 3127.30768995, 3097.94871552, 3340.25640831, 3577.43589605, 3254.61538253, 3213.58974137, 3158.33333104, 3156.53845925, 4114.10256383,0
3527.69230617, 3240.38461323, 3230.76922862, 3102.17948475, 3172.43589515, 3130.76922841, 3111.15384373, 3362.17948531, 3591.15384477, 3276.28204920, 3232.82051067, 3176.79486951, 3172.05127976, 4114.23076896,0
3529.35897283, 3254.23076715, 3241.15384400, 3113.84615142, 3187.69230547, 3150.51281815, 3135.38461303, 3377.56410069, 3603.71794733, 3294.48717748, 3241.02563888, 3188.20512599, 3184.87179265, 4117.94871767,0
3534.87179335, 3259.35897228, 3248.20512605, 3124.10256174, 3189.61538240, 3156.53845925, 3137.82051046, 3367.43589556, 3598.84615246, 3292.17948517, 3242.17948503, 3188.33333111, 3183.97435675, 4122.82051255,0
3538.84615232, 3272.30769023, 3262.30769023, 3147.69230533, 3196.15384393, 3164.23076694, 3148.58974123, 3366.66666479, 3597.43589605, 3296.79486978, 3258.07692100, 3201.41025419, 3192.30769009, 4116.79487152,0
3552.43589598, 3299.99999799, 3290.51281850, 3184.61538240, 3215.51281829, 3188.46153624, 3187.94871573, 3388.33333153, 3608.33333195, 3312.05128004, 3285.25640825, 3233.71794657, 3214.87179265, 4119.99999973,0
3569.48717803, 3331.53845960, 3334.61538267, 3234.99999785, 3237.69230554, 3211.41025419, 3219.87179272, 3411.92307512, 3618.71794740, 3332.94871601, 3336.15384421, 3288.33333132, 3248.97435682, 4122.94871767,0
3562.56410111, 3341.66666472, 3370.64102377, 3276.41025433, 3239.99999785, 3205.51281829, 3204.10256188, 3403.46153666, 3608.58974220, 3331.02563908, 3384.87179307, 3334.35897242, 3265.38461330, 4116.53846126,0
3554.87179342, 3333.33333139, 3389.99999820, 3293.33333132, 3218.46153631, 3179.10256181, 3158.71794643, 3369.99999813, 3586.66666528, 3298.07692107, 3399.74358794, 3349.48717761, 3253.07692100, 4121.15384588,0
3560.76922931, 3339.10256216, 3413.46153673, 3313.33333132, 3208.97435675, 3166.41025412, 3134.23076687, 3351.53845967, 3578.46153708, 3283.46153645, 3414.99999827, 3371.15384428, 3255.12820305, 4123.07692280,0
3570.25640880, 3349.35897249, 3434.61538288, 3334.35897242, 3210.51281829, 3162.94871566, 3135.12820277, 3355.76922890, 3578.07692169, 3292.43589542, 3443.07692134, 3398.97435717, 3274.87179279, 4122.69230742,0
3573.20512675, 3351.53845967, 3442.69230596, 3342.43589549, 3210.89743368, 3165.38461310, 3144.61538226, 3372.69230582, 3586.41025502, 3304.61538260, 3456.92307526, 3410.51281871, 3289.61538260, 4123.97435870,0
3546.02563957, 3313.33333132, 3404.87179307, 3300.38461337, 3180.89743361, 3139.23076687, 3118.07692072, 3348.71794685, 3570.76922931, 3281.41025433, 3418.58974186, 3370.38461351, 3259.48717741, 4123.46153819,0
3512.30769078, 3239.99999785, 3325.89743396, 3213.71794650, 3122.69230533, 3081.79486930, 3067.82051032, 3287.82051081, 3525.76922924, 3213.46153624, 3339.87179293, 3286.66666466, 3188.46153624, 4128.07692280,0
3521.92307540, 3239.35897221, 3312.69230568, 3201.15384393, 3133.20512585, 3098.58974116, 3093.33333091, 3304.87179286, 3539.99999848, 3219.10256195, 3323.97435703, 3272.43589536, 3187.30769009, 4124.87179460,0
3559.48717803, 3296.15384414, 3359.61538274, 3249.10256195, 3193.71794650, 3169.48717720, 3162.94871566, 3377.56410069, 3595.38461400, 3297.56410055, 3364.74358787, 3320.64102370, 3248.46153631, 4126.66666639,0
3572.43589598, 3311.92307491, 3370.64102377, 3253.97435689, 3213.84615163, 3195.51281829, 3184.99999778, 3400.51281871, 3610.25640894, 3329.35897242, 3372.17948531, 3331.66666472, 3273.71794664, 4130.38461511,0
3573.71794726, 3320.89743396, 3377.05128018, 3259.48717741, 3229.23076708, 3209.48717727, 3198.71794650, 3407.94871615, 3614.10256279, 3340.51281857, 3377.17948531, 3337.94871601, 3292.30769030, 4126.66666639,0
3593.20512682, 3353.97435710, 3404.48717768, 3290.64102363, 3258.71794664, 3238.58974144, 3225.38461323, 3433.07692134, 3629.74358843, 3371.79486992, 3393.33333153, 3365.76922890, 3326.02563908, 4132.05128178,0
3589.10256272, 3356.41025454, 3398.84615204, 3284.99999799, 3258.58974151, 3241.79486964, 3225.64102349, 3429.74358801, 3625.76922945, 3377.94871608, 3376.41025454, 3359.48717761, 3323.33333139, 4130.25640998,0
3575.38461393, 3343.33333139, 3379.74358787, 3266.92307484, 3249.74358766, 3237.94871580, 3221.41025426, 3411.15384435, 3615.76922945, 3370.12820326, 3359.23076736, 3339.35897242, 3309.10256209, 4127.05128178,0
3583.58974220, 3355.64102377, 3385.12820333, 3279.35897228, 3260.38461330, 3250.64102356, 3228.58974144, 3407.43589563, 3615.64102432, 3376.66666479, 3367.94871608, 3346.66666472, 3320.12820319, 4126.53846126,0
3580.89743451, 3363.46153659, 3391.28204948, 3288.84615183, 3268.07692100, 3253.84615177, 3223.84615170, 3402.69230589, 3609.48717810, 3375.25640838, 3369.99999813, 3353.71794685, 3327.17948524, 4121.28205101,0
3572.17948572, 3346.79486985, 3378.07692120, 3270.76922869, 3258.97435689, 3238.33333118, 3208.07692086, 3388.46153666, 3596.92307554, 3356.41025454, 3351.66666479, 3336.28204934, 3312.30769030, 4125.64102537,0
3560.76922931, 3329.99999806, 3353.46153659, 3243.71794657, 3242.43589529, 3221.79486964, 3192.43589522, 3369.61538274, 3582.56410118, 3333.71794678, 3327.30769037, 3310.64102363, 3289.23076722, 4123.07692280,0
3550.12820367, 3325.76922883, 3342.17948524, 3232.05127990, 3235.25640811, 3219.35897221, 3187.94871573, 3359.61538274, 3576.66666521, 3326.28204934, 3312.94871594, 3301.28204927, 3277.43589536, 4117.94871767,0
3545.38461393, 3321.15384421, 3339.99999806, 3229.87179272, 3239.61538247, 3220.76922862, 3188.46153624, 3366.41025454, 3584.10256272, 3333.84615190, 3306.28204927, 3298.58974158, 3275.64102356, 4122.30769203,0
3536.41025489, 3316.66666472, 3333.97435703, 3226.02563888, 3249.10256195, 3221.66666452, 3185.38461316, 3382.56410076, 3596.02563964, 3346.92307498, 3305.64102363, 3295.25640825, 3279.23076715, 4120.38461511,0
3532.69230617, 3304.23076722, 3314.87179293, 3206.79486958, 3243.71794657, 3214.35897214, 3172.43589515, 3378.84615197, 3591.66666528, 3341.02563908, 3292.82051081, 3278.33333125, 3269.74358766, 4120.12820485,0
3517.43589591, 3277.56410048, 3282.82051081, 3171.15384386, 3215.38461316, 3192.69230547, 3151.66666438, 3353.84615197, 3569.35897290, 3305.89743389, 3256.41025433, 3238.97435682, 3234.74358759, 4120.76923050,0
3517.94871642, 3291.66666466, 3291.15384414, 3180.51281822, 3224.10256195, 3207.05127983, 3170.25640797, 3369.87179300, 3578.71794733, 3311.53845953, 3259.23076715, 3243.20512605, 3241.79486964, 4120.12820485,0
3561.41025495, 3356.53845967, 3351.28204941, 3250.51281843, 3285.12820312, 3265.25640818, 3228.71794657, 3423.20512647, 3621.53846022, 3376.02563915, 3323.20512626, 3311.02563901, 3310.76922876, 4122.82051255,0
3582.30769092, 3401.41025461, 3392.69230589, 3304.99999799, 3324.87179293, 3301.66666466, 3258.97435689, 3441.66666493, 3636.66666535, 3417.82051109, 3369.10256223, 3359.87179300, 3357.17948531, 4120.25640998,0
3570.76922931, 3400.25640845, 3390.64102384, 3307.43589542, 3319.48717755, 3297.82051081, 3249.10256195, 3423.58974186, 3617.82051150, 3406.15384435, 3363.07692120, 3354.61538274, 3351.41025454, 4120.89743562,0
3572.05128060, 3405.12820333, 3394.87179307, 3309.23076722, 3327.94871601, 3309.10256209, 3257.94871587, 3429.87179314, 3622.82051150, 3408.33333153, 3363.84615197, 3357.82051095, 3355.12820326, 4119.10256383,0
3583.97435759, 3427.94871622, 3413.97435724, 3327.69230575, 3355.38461351, 3337.82051088, 3286.66666466, 3460.76922911, 3651.28205004, 3442.94871622, 3386.41025461, 3387.69230589, 3382.94871615, 4117.82051255,0
3590.76922938, 3434.99999827, 3423.58974186, 3332.82051088, 3360.38461351, 3343.84615190, 3291.66666466, 3466.79487013, 3652.05128080, 3451.41025475, 3392.30769050, 3399.61538281, 3390.25640845, 4122.94871767,0
3588.97435759, 3433.20512647, 3428.71794698, 3337.17948524, 3361.41025454, 3344.10256216, 3288.58974158, 3452.17948552, 3633.71794740, 3435.12820339, 3391.15384435, 3396.02563922, 3382.05128025, 4118.58974332,0
3586.02563964, 3436.28204955, 3430.12820339, 3346.28204934, 3371.28204941, 3352.56410069, 3296.28204927, 3450.51281885, 3630.25640894, 3435.12820339, 3397.17948538, 3396.66666486, 3382.30769050, 4119.48717921,0
3588.84615246, 3444.61538288, 3430.89743416, 3352.94871608, 3380.38461351, 3362.30769044, 3308.33333132, 3464.74358808, 3641.79487048, 3454.87179321, 3407.94871615, 3402.30769050, 3395.12820333, 4121.53846126,0
3598.46153708, 3461.28204962, 3447.94871628, 3369.23076736, 3394.74358794, 3377.30769044, 3314.10256209, 3478.71794705, 3650.12820388, 3472.05128039, 3426.41025468, 3419.87179314, 3415.64102391, 4115.38461511,0
3610.51281920, 3467.43589577, 3461.15384449, 3376.02563915, 3401.41025461, 3379.99999813, 3301.28204927, 3475.76922911, 3644.10256286, 3469.48717782, 3431.28204955, 3431.53845981, 3417.69230596, 4119.10256383,0
3614.23076791, 3480.64102405, 3471.92307526, 3386.02563922, 3412.82051102, 3391.02563922, 3310.12820312, 3483.97435738, 3651.66666542, 3482.56410097, 3436.15384442, 3445.38461365, 3429.35897263, 4119.48717921,0
3624.10256279, 3513.07692155, 3497.56410097, 3412.69230589, 3438.97435724, 3422.82051109, 3351.02563915, 3513.07692155, 3676.41025523, 3518.33333181, 3463.71794705, 3475.38461372, 3465.51281885, 4116.92307665,0
3641.41025509, 3533.20512668, 3520.38461386, 3433.07692134, 3459.74358808, 3446.41025475, 3377.69230582, 3532.82051130, 3689.99999882, 3543.71794719, 3493.58974200, 3501.92307533, 3493.07692148, 4120.12820485,0
3639.35897304, 3534.10256258, 3529.61538309, 3440.38461365, 3466.66666500, 3455.76922911, 3379.87179300, 3536.28204976, 3687.69230651, 3552.30769085, 3507.30769071, 3512.56410104, 3502.30769071, 4119.48717921,0
3635.89743458, 3531.79487027, 3529.48717796, 3440.38461365, 3466.92307526, 3457.56410090, 3382.69230589, 3536.79487027, 3680.51281934, 3551.66666521, 3504.61538302, 3509.35897276, 3499.48717789, 4119.74358947,0
3642.05128073, 3541.79487027, 3532.05128053, 3450.25640859, 3477.05128039, 3468.84615218, 3400.76922897, 3548.71794726, 3689.61538344, 3564.74358829, 3508.97435738, 3512.43589591, 3505.51281892, 4116.15384588,0
3641.53846022, 3553.20512675, 3535.64102412, 3466.28204962, 3487.69230610, 3478.46153680, 3407.82051102, 3557.17948572, 3696.15384498, 3577.30769085, 3519.87179335, 3517.69230617, 3513.97435745, 4116.66666639,0
3638.33333202, 3548.71794726, 3530.64102412, 3468.71794705, 3484.10256251, 3472.05128039, 3389.10256230, 3543.97435745, 3680.51281934, 3563.46153701, 3519.87179335, 3511.66666507, 3506.02563943, 4126.28205101,0
3636.92307561, 3546.66666521, 3530.89743437, 3467.94871628, 3488.46153687, 3476.28204962, 3385.38461358, 3537.43589591, 3677.30769113, 3561.79487034, 3527.17948565, 3514.61538309, 3505.64102405, 4121.28205101,0
3642.17948586, 3544.99999854, 3531.92307540, 3467.82051116, 3490.64102405, 3480.76922917, 3396.41025461, 3543.84615232, 3685.38461421, 3569.74358829, 3529.87179335, 3518.33333181, 3509.35897276, 4117.82051255,0
3638.71794740, 3538.20512668, 3523.58974206, 3466.66666500, 3480.25640866, 3473.33333167, 3393.20512640, 3542.82051130, 3682.69230651, 3563.58974213, 3516.02563950, 3510.12820353, 3498.46153687, 4122.43589716,0
3626.79487048, 3537.05128053, 3517.05128053, 3467.05128039, 3478.07692141, 3473.46153680, 3385.89743409, 3535.64102412, 3677.30769113, 3556.92307547, 3508.20512661, 3503.07692148, 3483.84615225, 4122.30769203,0
3626.28204997, 3535.89743437, 3513.84615232, 3463.07692141, 3477.56410090, 3475.89743423, 3384.10256230, 3533.71794719, 3673.71794747, 3550.51281906, 3505.12820353, 3496.92307533, 3475.76922911, 4124.87179460,0
3623.84615253, 3528.33333181, 3509.35897276, 3458.58974193, 3472.30769064, 3470.51281885, 3377.69230582, 3534.87179335, 3669.23076798, 3545.38461393, 3497.69230610, 3489.23076764, 3473.71794705, 4119.48717921,0
3622.82051150, 3522.69230617, 3504.61538302, 3455.51281885, 3468.84615218, 3464.99999834, 3367.05128018, 3532.43589591, 3668.20512696, 3544.23076771, 3491.28204969, 3485.12820353, 3467.43589577, 4120.38461511,0
3630.64102432, 3530.64102412, 3508.97435738, 3459.10256244, 3473.46153680, 3468.71794705, 3375.12820326, 3537.30769078, 3673.07692183, 3546.79487034, 3494.35897276, 3492.56410097, 3466.15384449, 4126.53846126,0
3629.87179356, 3537.43589591, 3515.38461386, 3466.15384449, 3476.41025475, 3472.69230603, 3394.87179307, 3544.87179342, 3674.48717824, 3549.99999854, 3498.33333174, 3499.87179328, 3478.71794705, 4118.46153819,0
3625.64102432, 3525.38461386, 3506.41025482, 3456.92307526, 3469.35897270, 3466.28204962, 3392.17948538, 3537.30769078, 3666.53846029, 3543.84615232, 3492.69230610, 3492.05128046, 3478.20512654, 4118.58974332,0
3625.76922945, 3526.02563950, 3506.41025482, 3459.23076757, 3474.74358808, 3468.84615218, 3385.12820333, 3533.46153694, 3667.05128080, 3542.94871642, 3495.38461379, 3495.64102405, 3476.66666500, 4125.38461511,0
3631.28204997, 3543.71794719, 3523.07692155, 3474.87179321, 3484.48717789, 3481.15384456, 3391.41025461, 3538.84615232, 3671.41025516, 3547.82051137, 3502.43589584, 3508.97435738, 3490.25640866, 4126.66666639,0
3630.89743458, 3540.38461386, 3521.15384463, 3466.92307526, 3477.56410090, 3480.51281892, 3396.02563922, 3538.97435745, 3666.79487055, 3541.15384463, 3495.76922917, 3501.66666507, 3488.97435738, 4125.51282024,0
3622.69230638, 3531.28204976, 3511.66666507, 3456.28204962, 3475.76922911, 3479.87179328, 3398.07692127, 3545.38461393, 3671.02563978, 3541.53846001, 3494.99999841, 3496.15384456, 3483.46153687, 4121.79487152,0
3639.23076791, 3547.69230624, 3529.48717796, 3473.58974193, 3489.35897276, 3492.43589584, 3406.79486999, 3558.84615239, 3684.87179369, 3567.69230624, 3514.87179335, 3516.92307540, 3508.20512661, 4121.79487152,0
3656.41025516, 3568.71794726, 3554.35897290, 3497.82051123, 3502.82051123, 3506.92307533, 3422.17948545, 3566.92307547, 3692.69230651, 3591.02563964, 3533.97435745, 3540.25640873, 3537.69230617, 4120.12820485,0
3650.25640901, 3569.35897290, 3556.92307547, 3502.56410097, 3509.74358815, 3514.87179335, 3433.33333160, 3576.15384470, 3697.05128087, 3594.35897297, 3537.17948565, 3544.35897283, 3539.23076771, 4119.10256383,0
3648.46153721, 3566.66666521, 3553.20512675, 3498.71794712, 3516.79487027, 3522.05128053, 3436.41025468, 3582.43589605, 3698.71794754, 3595.64102426, 3532.82051130, 3539.87179335, 3534.10256258, 4122.17948691,0
3653.33333209, 3579.99999861, 3564.99999854, 3509.35897276, 3531.28204976, 3535.64102412, 3444.87179314, 3583.20512682, 3698.33333216, 3603.58974220, 3536.79487027, 3547.43589598, 3545.76922931, 4118.71794844,0
3660.51281927, 3591.28204990, 3579.74358836, 3524.74358822, 3542.05128053, 3543.46153694, 3454.74358808, 3584.35897297, 3696.66666549, 3601.41025502, 3544.87179342, 3559.35897290, 3555.51281906, 4121.66666639,0
3664.74358850, 3601.28204990, 3589.10256272, 3536.41025489, 3549.61538316, 3547.30769085, 3457.56410090, 3587.30769092, 3696.92307575, 3600.25640887, 3554.87179342, 3569.35897290, 3559.23076778, 4125.38461511,0
3667.56410132, 3616.41025509, 3600.89743451, 3547.43589598, 3559.74358829, 3557.17948572, 3460.89743423, 3589.99999861, 3699.61538344, 3610.12820374, 3562.69230624, 3578.20512682, 3565.12820367, 4123.20512793,0
3677.05128087, 3622.05128073, 3611.41025509, 3555.76922931, 3566.02563957, 3564.74358829, 3476.02563936, 3597.30769092, 3706.41025523, 3616.41025509, 3563.97435752, 3586.15384477, 3569.99999854, 4123.33333306,0
3683.71794754, 3631.41025509, 3623.97435766, 3567.17948572, 3578.71794733, 3581.15384477, 3505.25640866, 3620.38461407, 3723.07692197, 3634.23076791, 3577.17948572, 3606.66666528, 3591.66666528, 4118.07692280,0
3696.15384498, 3651.79487055, 3644.61538337, 3584.61538323, 3597.82051143, 3601.92307554, 3526.66666514, 3643.07692183, 3736.15384505, 3660.12820388, 3599.61538323, 3631.15384484, 3625.12820381, 4118.07692280,0
3705.76922959, 3660.64102439, 3654.87179362, 3595.89743451, 3605.38461400, 3605.51281913, 3523.71794719, 3642.56410125, 3732.43589633, 3663.07692183, 3605.64102426, 3637.17948586, 3636.41025509, 4118.46153819,0
3702.17948600, 3662.94871670, 3654.48717824, 3600.89743451, 3608.84615246, 3608.33333195, 3527.30769078, 3641.66666535, 3731.15384505, 3662.17948593, 3607.30769092, 3640.64102432, 3637.56410125, 4115.25640998,0
3705.25640908, 3669.74358850, 3657.05128080, 3600.89743451, 3617.05128073, 3619.99999868, 3542.43589591, 3650.25640901, 3735.38461428, 3673.33333209, 3614.61538330, 3648.20512696, 3644.99999875, 4121.53846126,0
3707.05128087, 3673.71794747, 3662.05128080, 3605.12820374, 3622.56410125, 3629.48717817, 3547.43589598, 3652.05128080, 3732.94871684, 3679.48717831, 3617.30769099, 3649.10256286, 3649.99999875, 4120.12820485,0
3702.56410139, 3664.10256286, 3655.51281927, 3607.69230631, 3615.89743458, 3626.53846022, 3537.69230617, 3646.41025516, 3726.79487069, 3669.35897311, 3611.79487048, 3641.53846022, 3643.58974234, 4118.20512793,0
3701.66666549, 3659.74358850, 3648.71794747, 3609.74358836, 3612.94871663, 3619.87179356, 3531.79487027, 3643.58974234, 3726.53846043, 3659.35897311, 3607.43589605, 3637.17948586, 3635.89743458, 4121.79487152,0
3702.43589626, 3674.10256286, 3657.05128080, 3623.20512689, 3626.41025509, 3625.51281920, 3544.87179342, 3647.05128080, 3733.58974248, 3668.58974234, 3614.48717817, 3644.35897311, 3643.58974234, 4120.12820485,0
3704.48717831, 3671.66666542, 3658.71794747, 3621.66666535, 3628.07692176, 3624.87179356, 3553.20512675, 3650.25640901, 3735.12820402, 3675.76922952, 3618.20512689, 3644.87179362, 3648.84615260, 4121.02564075,0
3703.71794754, 3667.94871670, 3657.43589619, 3614.35897304, 3617.17948586, 3619.74358843, 3554.35897290, 3656.41025516, 3735.76922966, 3672.69230645, 3619.61538330, 3648.07692183, 3651.15384491, 4118.33333306,0
3704.87179369, 3681.15384498, 3666.79487055, 3624.23076791, 3621.02563971, 3622.69230638, 3559.74358829, 3657.43589619, 3734.35897325, 3674.61538337, 3626.53846022, 3661.41025516, 3658.58974234, 4117.94871767,0
3701.79487062, 3674.87179362, 3662.17948593, 3622.17948586, 3629.10256279, 3621.79487048, 3556.92307547, 3651.15384491, 3727.94871684, 3675.12820388, 3622.30769099, 3652.69230645, 3655.38461414, 4121.02564075,0
3694.23076805, 3665.89743465, 3654.99999875, 3615.25640894, 3635.25640894, 3622.94871663, 3551.28204983, 3654.35897311, 3731.02563992, 3677.30769113, 3618.46153715, 3642.94871663, 3653.71794747, 4116.53846126,0
3702.56410139, 3678.20512703, 3661.53846029, 3622.05128073, 3634.99999868, 3625.12820381, 3548.71794726, 3654.74358850, 3729.99999889, 3672.30769106, 3621.15384484, 3651.28205004, 3656.79487055, 4118.71794844,0
3707.30769113, 3688.84615267, 3669.87179362, 3634.74358843, 3635.12820381, 3629.35897304, 3554.99999854, 3653.84615260, 3729.61538351, 3674.23076798, 3631.53846022, 3661.28205004, 3664.35897311, 4119.48717921,0
3699.48717831, 3681.66666549, 3665.64102439, 3634.35897304, 3639.99999868, 3633.97435766, 3558.20512675, 3659.10256286, 3735.76922966, 3686.41025523, 3639.87179356, 3659.35897311, 3668.97435773, 4118.46153819,0
3699.74358857, 3676.79487062, 3654.87179362, 3624.61538330, 3639.74358843, 3632.94871663, 3552.69230624, 3656.92307568, 3733.20512710, 3679.10256293, 3627.94871663, 3651.02563978, 3659.87179362, 4122.43589716,0
3701.53846036, 3687.17948600, 3661.02563978, 3632.43589612, 3643.07692183, 3639.48717817, 3554.61538316, 3651.53846029, 3727.94871684, 3668.33333209, 3624.48717817, 3656.02563978, 3657.69230645, 4117.43589716,0
3707.43589626, 3698.07692190, 3679.61538344, 3648.20512696, 3650.64102439, 3646.53846029, 3556.02563957, 3652.94871670, 3731.53846043, 3675.51281927, 3637.56410125, 3665.51281927, 3666.53846029, 4116.66666639,0
3713.71794761, 3706.53846036, 3689.23076805, 3657.43589619, 3659.99999875, 3649.23076798, 3550.38461393, 3662.56410132, 3741.41025530, 3692.69230651, 3645.76922952, 3672.05128080, 3674.99999875, 4120.25640998,0
3708.58974241, 3708.07692190, 3685.76922959, 3659.10256286, 3665.38461414, 3653.97435773, 3547.56410111, 3672.17948593, 3743.84615281, 3696.92307575, 3641.92307561, 3672.82051157, 3672.43589619, 4119.74358947,0
3714.99999889, 3713.58974248, 3691.92307575, 3665.64102439, 3668.97435773, 3666.02563978, 3561.02563957, 3684.87179369, 3747.17948614, 3695.38461421, 3647.43589619, 3677.56410139, 3677.30769113, 4122.69230742,0
3727.69230658, 3731.92307582, 3714.48717838, 3687.17948600, 3684.74358857, 3684.35897318, 3580.51281913, 3700.25640908, 3756.79487076, 3715.76922966, 3672.05128080, 3700.89743472, 3705.51281934, 4121.02564075,0
3733.84615274, 3739.23076812, 3723.46153735, 3694.10256293, 3690.51281934, 3691.02563985, 3581.28204990, 3701.66666549, 3758.07692204, 3727.82051171, 3681.41025523, 3715.12820402, 3719.48717838, 4121.66666639,0
3736.15384505, 3737.94871684, 3724.35897325, 3691.02563985, 3688.84615267, 3695.51281934, 3581.15384477, 3697.17948600, 3756.02563999, 3722.56410146, 3677.69230651, 3717.30769120, 3716.53846043, 4122.56410229,0
3736.41025530, 3746.28205024, 3733.07692197, 3705.38461421, 3702.94871677, 3709.99999889, 3595.12820374, 3702.05128087, 3760.25640922, 3729.48717838, 3685.12820395, 3727.43589633, 3726.66666556, 4120.76923050,0
3747.30769127, 3760.12820409, 3744.74358871, 3720.76922966, 3715.64102453, 3721.92307582, 3606.66666528, 3711.02563992, 3766.66666563, 3746.53846050, 3700.12820395, 3741.66666563, 3746.02563999, 4124.74358947,0
3758.20512717, 3776.28205031, 3764.35897332, 3733.71794761, 3720.76922966, 3735.89743479, 3621.92307561, 3726.66666556, 3777.05128108, 3761.66666563, 3719.99999889, 3756.92307588, 3761.92307588, 4122.30769203,0
3758.58974255, 3788.58974262, 3779.87179390, 3751.41025537, 3732.94871684, 3749.35897332, 3637.17948586, 3741.02563992, 3783.46153749, 3770.76922973, 3728.07692197, 3767.56410153, 3770.25640922, 4121.66666639,0
3758.97435794, 3796.79487083, 3782.05128108, 3763.58974255, 3747.94871691, 3750.64102460, 3633.84615253, 3742.82051178, 3785.25640929, 3777.69230672, 3726.92307582, 3771.41025537, 3774.48717852, 4123.58974332,0
3765.51281947, 3812.05128115, 3794.74358877, 3773.58974255, 3759.48717845, 3752.30769127, 3631.66666535, 3747.05128101, 3793.97435801, 3794.10256313, 3743.71794768, 3786.28205031, 3789.10256313, 4119.35897408,0
3778.33333236, 3820.76922987, 3811.15384525, 3783.71794775, 3765.76922973, 3762.05128101, 3641.53846022, 3754.23076819, 3797.69230672, 3804.99999903, 3756.92307588, 3803.33333236, 3800.51281954, 4123.20512793,0
3779.35897339, 3819.61538372, 3808.97435807, 3790.25640929, 3771.15384512, 3776.15384518, 3654.99999875, 3761.79487076, 3798.71794775, 3805.25640929, 3748.20512717, 3803.33333236, 3796.02564006, 4120.51282024,0
3778.58974262, 3828.46153756, 3808.84615295, 3795.38461442, 3775.89743493, 3786.28205031, 3667.05128080, 3773.84615281, 3807.17948628, 3811.02564013, 3751.79487076, 3803.84615288, 3799.99999903, 4117.30769203,0
3782.43589647, 3833.33333243, 3814.74358884, 3794.61538365, 3778.97435801, 3787.17948621, 3669.74358850, 3779.23076826, 3809.23076833, 3819.35897346, 3770.51281947, 3812.17948628, 3817.82051192, 4123.71794844,0
3778.71794775, 3828.07692218, 3817.94871705, 3799.10256313, 3788.58974262, 3793.33333236, 3669.48717824, 3781.66666570, 3808.46153756, 3829.99999910, 3778.33333236, 3822.30769141, 3830.64102474, 4121.92307665,0
3787.69230672, 3841.66666584, 3830.38461449, 3819.61538372, 3795.38461442, 3810.12820423, 3679.87179369, 3793.07692211, 3814.48717859, 3843.33333250, 3783.97435801, 3833.07692218, 3837.17948628, 4121.28205101,0
3797.05128108, 3866.66666584, 3844.74358891, 3835.12820423, 3800.76922980, 3822.30769141, 3693.07692190, 3800.89743493, 3820.64102474, 3849.99999917, 3798.07692211, 3844.23076840, 3847.30769148, 4120.51282024,0
3790.64102467, 3858.07692225, 3843.20512738, 3827.56410166, 3810.38461449, 3818.84615295, 3691.15384498, 3793.71794775, 3815.51281961, 3846.92307609, 3799.23076826, 3843.97435814, 3846.15384532, 4119.61538434,0
3792.56410160, 3839.48717859, 3837.69230679, 3822.30769141, 3813.97435807, 3814.23076833, 3688.97435780, 3792.17948621, 3810.12820423, 3844.87179404, 3788.07692211, 3837.82051192, 3835.25640936, 4122.43589716,0
3801.15384518, 3861.02564020, 3848.84615302, 3840.12820430, 3825.38461449, 3827.43589654, 3705.64102446, 3807.43589654, 3820.12820423, 3854.48717866, 3796.15384518, 3850.12820430, 3845.89743507, 4117.43589716,0
3807.43589654, 3875.89743514, 3856.02564020, 3844.74358891, 3837.05128115, 3840.76922994, 3720.76922966, 3816.15384525, 3828.20512731, 3856.53846071, 3804.87179390, 3860.38461455, 3854.74358891, 4119.74358947,0
3806.79487083, 3872.94871719, 3854.61538379, 3846.66666584, 3838.20512731, 3849.35897353, 3729.74358864, 3816.92307602, 3827.05128115, 3856.15384532, 3799.61538365, 3859.35897353, 3851.79487096, 4121.79487152,0
3803.71794775, 3890.64102488, 3860.64102481, 3868.07692225, 3842.94871712, 3857.17948635, 3734.87179376, 3814.23076833, 3825.51281961, 3858.71794789, 3798.58974262, 3861.41025558, 3851.53846071, 4117.82051255,0
3806.41025544, 3894.61538385, 3864.10256327, 3870.25640943, 3851.15384532, 3853.58974276, 3729.23076812, 3808.71794782, 3823.07692218, 3846.66666584, 3795.51281954, 3857.94871712, 3842.30769148, 4119.99999973,0
3808.84615295, 3881.92307616, 3871.15384532, 3865.38461455, 3856.79487096, 3855.89743507, 3729.99999889, 3818.07692218, 3826.15384525, 3847.82051199, 3795.89743493, 3862.82051199, 3843.20512738, 4120.25640998,0
3818.71794782, 3893.71794796, 3887.30769155, 3882.82051206, 3857.17948635, 3872.43589661, 3744.87179383, 3838.58974269, 3836.66666577, 3872.94871719, 3805.12820416, 3880.51281975, 3862.30769148, 4121.79487152,0
3833.97435807, 3922.94871726, 3906.41025572, 3904.74358898, 3872.82051206, 3895.38461462, 3766.15384512, 3863.46153763, 3855.76922994, 3898.97435821, 3822.17948628, 3901.66666591, 3882.43589668, 4119.87179460,0
3838.97435807, 3930.51281982, 3915.38461469, 3900.12820437, 3893.33333257, 3906.41025572, 3776.66666570, 3876.41025565, 3864.74358891, 3909.99999931, 3835.76922987, 3914.61538392, 3891.02564027, 4119.99999973,0
3841.79487096, 3918.97435828, 3911.53846085, 3879.10256334, 3884.99999924, 3899.35897360, 3769.87179383, 3863.20512738, 3854.48717866, 3907.94871726, 3837.43589654, 3912.17948649, 3891.53846078, 4123.84615357,0
3847.69230686, 3929.10256341, 3921.66666598, 3886.28205052, 3886.02564027, 3913.71794803, 3783.97435801, 3868.97435814, 3863.58974276, 3930.76923008, 3856.28205045, 3926.02564033, 3915.51281982, 4118.97435870,0
3858.20512738, 3951.15384553, 3944.61538399, 3911.66666598, 3914.61538392, 3940.12820451, 3813.20512731, 3898.58974283, 3886.41025565, 3965.51281989, 3885.12820437, 3955.12820451, 3950.12820451, 4121.79487152,0
3859.87179404, 3948.07692246, 3948.84615322, 3916.41025572, 3922.69230700, 3937.30769162, 3811.92307602, 3896.92307616, 3880.12820437, 3963.33333271, 3890.38461462, 3958.46153784, 3950.51281989, 4123.58974332,0
3849.99999917, 3942.30769169, 3943.20512758, 3911.41025572, 3912.17948649, 3929.10256341, 3798.84615288, 3880.51281975, 3864.87179404, 3946.66666605, 3883.07692232, 3947.69230707, 3937.43589674, 4117.69230742,0
3855.51281968, 3957.56410194, 3951.41025579, 3921.02564033, 3918.07692239, 3937.05128136, 3804.35897339, 3883.33333257, 3869.61538379, 3951.02564040, 3888.20512744, 3952.56410194, 3942.82051220, 4121.53846126,0
3864.61538379, 3968.84615322, 3962.82051220, 3938.58974297, 3933.07692239, 3944.99999938, 3816.02564013, 3888.71794796, 3877.17948642, 3962.43589681, 3901.15384539, 3969.87179425, 3951.79487117, 4121.28205101,0
3867.94871712, 3967.17948656, 3970.25640963, 3949.99999938, 3937.56410187, 3946.41025579, 3819.23076833, 3888.58974283, 3874.48717873, 3957.69230707, 3907.05128136, 3981.66666611, 3951.92307630, 4118.20512793,0
3870.64102481, 3968.20512758, 3973.84615329, 3949.35897374, 3934.10256341, 3946.15384553, 3816.66666577, 3889.87179411, 3870.89743507, 3945.64102502, 3906.41025572, 3977.94871740, 3946.66666605, 4118.58974332,0
3863.71794789, 3966.92307630, 3967.94871733, 3942.56410194, 3934.35897367, 3948.07692246, 3817.69230679, 3888.97435821, 3871.53846071, 3944.74358912, 3903.46153770, 3968.33333271, 3939.99999938, 4117.69230742,0
3860.38461455, 3959.48717887, 3958.20512758, 3939.99999938, 3936.79487110, 3951.15384553, 3821.15384525, 3888.20512744, 3870.12820430, 3944.74358912, 3903.20512744, 3962.82051220, 3935.12820444, 4119.99999973,0
3866.92307609, 3976.02564047, 3965.38461476, 3956.92307630, 3943.20512758, 3965.51281989, 3832.69230679, 3900.51281975, 3873.58974283, 3947.30769169, 3915.64102495, 3968.97435835, 3948.58974297, 4117.43589716,0
3877.30769155, 3994.61538406, 3982.82051227, 3975.12820458, 3953.84615322, 3978.20512765, 3841.02564020, 3913.46153777, 3885.25640950, 3966.15384553, 3933.71794803, 3985.12820458, 3971.92307637, 4117.82051255,0
3877.17948642, 3974.87179432, 3979.87179432, 3968.33333271, 3960.12820451, 3965.38461476, 3828.97435807, 3908.33333264, 3884.61538385, 3975.12820458, 3933.97435828, 3988.46153791, 3966.53846092, 4121.41025614,0
3873.46153770, 3980.76923022, 3981.41025586, 3979.74358919, 3968.97435835, 3966.53846092, 3834.48717859, 3909.23076854, 3884.87179411, 3973.58974304, 3941.02564040, 3991.53846099, 3959.61538399, 4117.43589716,0
3886.66666591, 4016.79487131, 3998.84615329, 4004.87179439, 3977.43589688, 3986.79487124, 3860.76922994, 3923.97435828, 3896.02564027, 3980.76923022, 3960.89743528, 4003.07692252, 3972.69230714, 4119.99999973,0
3885.12820437, 4008.33333285, 3995.64102509, 3995.64102509, 3976.79487124, 3984.10256355, 3866.15384532, 3928.33333264, 3899.23076847, 3987.82051227, 3959.23076861, 3998.07692252, 3974.74358919, 4119.10256383,0
3867.69230686, 3977.43589688, 3978.20512765, 3972.56410201, 3966.92307630, 3965.51281989, 3855.25640943, 3917.56410187, 3891.53846078, 3981.92307637, 3945.64102502, 3979.23076868, 3963.33333271, 4118.33333306,0
3876.02564027, 3985.51281996, 3980.89743535, 3982.43589688, 3962.82051220, 3964.35897374, 3855.12820430, 3911.41025572, 3889.61538385, 3977.05128150, 3954.35897374, 3980.76923022, 3966.28205066, 4123.84615357,0
3890.25640950, 4011.28205080, 4006.41025593, 4014.99999952, 3977.05128150, 3980.51281996, 3864.61538379, 3923.97435828, 3899.61538385, 3989.23076868, 3982.17948663, 4009.23076875, 3984.61538406, 4119.35897408,0
3892.82051206, 4011.53846106, 4014.99999952, 4022.69230721, 3982.56410201, 3986.41025586, 3868.07692225, 3933.71794803, 3901.41025565, 3993.71794817, 3986.92307637, 4017.43589695, 3986.15384560, 4119.99999973,0
3892.30769155, 4008.33333285, 4006.02564054, 4016.79487131, 3974.48717894, 3984.61538406, 3866.02564020, 3926.53846085, 3894.87179411, 3983.58974304, 3973.84615329, 4005.25640977, 3976.66666611, 4119.48717921,0
3900.89743514, 4021.28205080, 4020.76923029, 4030.25640977, 3979.48717894, 3989.74358919, 3868.33333250, 3928.46153777, 3899.35897360, 3986.28205073, 3986.28205073, 4017.94871747, 3985.12820458, 4116.79487152,0
3915.12820444, 4027.05128157, 4041.02564061, 4041.92307651, 3987.43589688, 3991.41025586, 3874.23076847, 3944.35897374, 3909.48717880, 3998.71794817, 4002.05128150, 4037.30769189, 3998.84615329, 4121.41025614,0
3914.35897367, 4027.69230721, 4043.84615343, 4042.56410215, 3991.53846099, 4000.25640970, 3888.71794796, 3962.69230707, 3918.20512751, 4012.30769183, 4003.71794817, 4044.35897395, 4008.71794824, 4117.43589716,0
3916.02564033, 4033.07692259, 4047.30769189, 4047.43589702, 3998.84615329, 4018.33333285, 3905.12820437, 3975.38461483, 3924.74358905, 4023.07692259, 4007.94871747, 4050.25640984, 4020.12820465, 4116.92307665,0
3923.20512751, 4036.15384567, 4051.66666625, 4054.35897395, 4007.43589695, 4027.56410208, 3910.51281982, 3974.23076868, 3926.15384546, 4025.64102516, 4011.66666618, 4051.79487138, 4023.84615336, 4119.99999973,0
3917.69230700, 4035.64102516, 4049.23076882, 4054.87179446, 4011.92307644, 4028.07692259, 3908.71794803, 3964.23076861, 3919.35897367, 4020.25640977, 4003.71794817, 4044.35897395, 4015.25640977, 4116.41025614,0
3915.76923008, 4036.15384567, 4046.92307651, 4059.61538420, 4013.33333285, 4027.56410208, 3909.48717880, 3957.17948656, 3914.61538392, 4011.02564054, 3996.28205073, 4038.97435856, 4004.35897388, 4117.43589716,0
3918.97435828, 4048.71794830, 4054.10256369, 4084.87179453, 4027.56410208, 4036.66666618, 3917.69230700, 3965.38461476, 3922.82051213, 4018.07692259, 4009.10256362, 4050.89743548, 4015.12820465, 4115.76923050,0
3922.17948649, 4061.15384574, 4058.97435856, 4105.64102537, 4037.43589702, 4044.35897395, 3921.28205059, 3975.25640970, 3926.66666598, 4028.33333285, 4020.38461490, 4057.69230728, 4029.35897388, 4116.53846126,0
3922.17948649, 4056.53846113, 4057.43589702, 4103.07692280, 4031.66666618, 4038.97435856, 3918.97435828, 3970.76923015, 3919.87179418, 4019.35897388, 4014.87179439, 4049.10256369, 4022.43589695, 4121.41025614,0
3921.79487110, 4057.05128164, 4068.46153805, 4112.82051255, 4035.38461490, 4041.66666625, 3930.64102495, 3972.43589688, 3926.79487110, 4027.17948670, 4026.92307644, 4061.15384574, 4028.20512772, 4118.71794844,0
3935.25640957, 4070.12820478, 4085.51282017, 4136.15384595, 4040.25640984, 4053.97435856, 3942.82051220, 3984.48717894, 3938.97435835, 4053.71794830, 4048.58974318, 4086.15384581, 4050.38461497, 4119.74358947,0
3943.20512758, 4081.28205094, 4092.05128171, 4152.30769210, 4049.23076882, 4061.41025600, 3941.66666605, 3994.10256355, 3943.07692246, 4067.43589702, 4056.02564061, 4092.30769196, 4059.87179446, 4119.74358947,0
3934.74358905, 4079.99999966, 4087.94871761, 4157.43589723, 4064.48717907, 4059.10256369, 3936.92307623, 3993.58974304, 3944.10256348, 4064.74358933, 4053.07692266, 4082.69230735, 4056.28205087, 4117.69230742,0
3933.46153777, 4075.25640991, 4086.15384581, 4161.15384595, 4063.84615343, 4056.92307651, 3939.48717887, 3991.15384560, 3942.94871733, 4064.23076882, 4053.46153805, 4080.38461504, 4059.23076882, 4119.87179460,0
3939.48717887, 4083.46153812, 4098.58974325, 4177.94871781, 4063.20512779, 4068.33333292, 3952.17948656, 4001.28205073, 3949.23076861, 4082.69230735, 4069.61538420, 4098.46153812, 4075.38461504, 4115.89743562,0
3948.33333271, 4090.25640991, 4108.58974332, 4190.51282038, 4065.38461497, 4073.58974325, 3956.92307630, 4011.02564054, 3957.69230707, 4096.92307658, 4081.79487145, 4112.56410229, 4083.97435863, 4116.28205101,0
3951.53846092, 4093.71794837, 4106.66666639, 4196.41025628, 4062.56410215, 4071.41025607, 3958.07692246, 4012.30769183, 3959.35897374, 4094.61538427, 4081.41025607, 4112.17948691, 4086.66666632, 4119.61538434,0
3943.07692246, 4094.35897402, 4103.46153819, 4206.92307686, 4062.56410215, 4076.41025607, 3968.97435835, 4011.41025593, 3956.41025579, 4091.28205094, 4080.51282017, 4108.33333306, 4087.82051248, 4118.97435870,0
3938.20512751, 4081.02564068, 4096.66666632, 4208.33333327, 4060.76923036, 4076.28205094, 3971.66666611, 4007.17948670, 3949.99999938, 4084.61538427, 4072.82051248, 4099.99999966, 4077.30769196, 4121.53846126,0
3938.20512751, 4078.46153812, 4092.30769196, 4210.38461532, 4061.66666625, 4070.76923043, 3967.05128143, 4003.07692252, 3949.74358912, 4077.05128171, 4065.51282010, 4098.20512786, 4070.51282017, 4119.61538434,0
3943.97435835, 4090.89743555, 4095.89743555, 4217.05128199, 4062.69230728, 4067.30769189, 3967.69230707, 4001.66666611, 3952.69230707, 4077.05128171, 4066.15384574, 4103.20512793, 4070.76923043, 4120.64102537,0
3947.82051220, 4091.28205094, 4100.38461504, 4219.48717942, 4060.25640984, 4071.92307658, 3975.25640970, 4002.94871740, 3955.12820451, 4082.30769196, 4068.33333292, 4106.41025614, 4071.66666632, 4121.66666639,0
3946.79487117, 4086.41025607, 4106.79487152, 4228.07692301, 4074.99999966, 4084.10256376, 3985.76923022, 4010.76923029, 3959.48717887, 4089.48717914, 4074.74358940, 4115.51282024, 4082.56410222, 4117.43589716,0
3954.61538399, 4099.74358940, 4114.10256383, 4236.28205129, 4089.61538427, 4087.30769196, 3990.25640970, 4016.28205080, 3961.41025579, 4094.48717914, 4080.25640991, 4121.41025614, 4088.71794837, 4121.02564075,0
3957.69230707, 4120.51282024, 4120.12820485, 4240.38461539, 4086.66666632, 4091.66666632, 3999.74358919, 4023.97435849, 3968.46153784, 4106.28205101, 4083.71794837, 4123.20512793, 4092.94871761, 4120.25640998,0
3961.53846092, 4121.79487152, 4124.23076896, 4245.25641026, 4094.35897402, 4100.51282017, 4009.23076875, 4037.82051241, 3976.41025586, 4117.05128178, 4089.99999966, 4130.76923050, 4106.28205101, 4119.87179460,0
3961.53846092, 4121.79487152, 4124.23076896, 4245.25641026, 4094.35897402, 4100.51282017, 4009.23076875, 4037.82051241, 3976.41025586, 4117.05128178, 4089.99999966, 4130.76923050, 4106.28205101, 4119.87179460,0
3974.48717894, 4118.46153819, 4132.69230742, 4250.38461539, 4103.58974332, 4108.46153819, 4013.20512772, 4046.41025600, 3978.20512765, 4117.82051255, 4101.28205094, 4143.20512800, 4119.35897408, 4123.33333306,0
3981.15384560, 4136.92307672, 4152.17948697, 4265.89743590, 4106.66666639, 4128.20512793, 4030.38461490, 4053.33333292, 3988.58974304, 4133.84615357, 4119.48717921, 4162.94871774, 4134.61538434, 4119.99999973,0
3986.66666611, 4154.99999980, 4166.15384595, 4277.94871802, 4130.12820485, 4144.74358954, 4048.07692266, 4062.17948677, 3999.61538406, 4150.76923056, 4126.66666639, 4174.74358961, 4142.43589723, 4121.15384588,0
3993.71794817, 4158.58974339, 4170.38461525, 4279.10256418, 4162.56410236, 4151.02564082, 4055.76923036, 4073.33333299, 4000.51281996, 4151.92307672, 4128.07692280, 4176.92307679, 4144.23076903, 4121.66666639,0
4006.92307644, 4168.33333320, 4183.84615371, 4289.74358982, 4169.35897422, 4167.56410236, 4067.94871754, 4086.41025607, 4004.74358926, 4157.30769210, 4137.94871774, 4190.25641012, 4159.99999980, 4121.79487152,0
4016.02564054, 4183.46153833, 4197.94871781, 4303.97435912, 4163.46153826, 4178.33333320, 4076.41025607, 4091.53846119, 4011.66666618, 4168.20512807, 4144.10256390, 4204.87179481, 4172.56410243, 4124.87179460,0
4007.82051234, 4194.48717935, 4200.76923063, 4308.33333348, 4173.07692294, 4178.20512807, 4079.48717914, 4090.12820478, 4014.35897388, 4174.87179474, 4146.79487159, 4209.35897429, 4168.71794858, 4121.02564075,0
4017.56410208, 4207.17948711, 4208.71794865, 4315.12820527, 4185.89743576, 4191.15384602, 4093.97435863, 4098.20512786, 4017.69230721, 4181.92307679, 4156.02564082, 4216.15384609, 4172.17948704, 4118.97435870,0
4041.02564061, 4223.20512814, 4230.76923070, 4331.53846168, 4198.20512807, 4213.71794865, 4110.25640998, 4114.74358947, 4027.30769183, 4199.99999986, 4170.51282038, 4234.10256411, 4194.87179474, 4116.79487152,0
4048.33333292, 4232.56410250, 4247.82051282, 4343.07692329, 4208.58974352, 4222.05128199, 4111.02564075, 4123.46153819, 4035.25640977, 4214.10256404, 4184.10256397, 4252.82051282, 4215.12820506, 4117.30769203,0
4045.76923036, 4231.53846147, 4245.12820513, 4340.64102585, 4211.02564096, 4220.12820506, 4114.23076896, 4125.89743562, 4037.17948677, 4211.15384609, 4188.07692294, 4256.15384616, 4217.56410250, 4123.33333306,0
4041.41025600, 4236.53846154, 4241.02564103, 4340.89743611, 4217.82051275, 4232.43589737, 4138.20512800, 4137.82051262, 4042.94871754, 4217.82051275, 4188.58974345, 4256.02564103, 4219.74358968, 4119.48717921,0
4049.74358933, 4241.66666667, 4249.48717949, 4347.17948739, 4222.69230763, 4250.25641026, 4157.43589723, 4148.97435877, 4050.38461497, 4231.15384609, 4195.25641012, 4263.20512821, 4228.33333327, 4120.25640998,0
4062.05128164, 4241.79487180, 4262.69230770, 4354.74358996, 4233.84615385, 4257.17948718, 4162.82051262, 4150.89743569, 4054.99999959, 4233.07692301, 4205.25641019, 4274.74358982, 4239.10256411, 4123.46153819,0
4064.61538420, 4249.23076923, 4271.53846161, 4357.17948739, 4249.48717949, 4262.82051282, 4177.30769217, 4155.12820492, 4056.92307651, 4236.41025641, 4211.66666660, 4285.64102571, 4251.92307693, 4119.99999973,0
4069.10256369, 4252.43589744, 4270.51282059, 4350.89743611, 4247.82051282, 4271.79487187, 4192.17948704, 4161.15384595, 4055.25640984, 4240.00000000, 4209.35897429, 4288.46153853, 4256.02564103, 4122.82051255,0
4066.53846113, 4258.58974359, 4270.64102571, 4354.23076944, 4245.89743590, 4280.89743597, 4190.25641012, 4163.46153826, 4061.02564061, 4241.66666667, 4212.17948711, 4289.61538469, 4255.64102564, 4121.02564075,0
4062.69230728, 4264.35897436, 4269.10256418, 4356.41025662, 4248.58974359, 4277.17948725, 4176.53846140, 4160.12820492, 4065.38461497, 4235.38461539, 4216.41025634, 4284.10256418, 4252.17948718, 4119.10256383,0
4067.05128164, 4254.74358975, 4262.43589744, 4346.02564124, 4250.25641026, 4268.84615392, 4174.48717935, 4159.10256390, 4060.38461497, 4228.97435891, 4212.43589737, 4280.51282059, 4252.69230770, 4120.89743562,0
4068.97435856, 4256.15384616, 4267.82051289, 4351.79487201, 4262.43589744, 4276.79487187, 4189.48717935, 4164.35897415, 4061.92307651, 4241.66666667, 4221.15384609, 4295.38461546, 4267.82051289, 4118.97435870,0
4080.51282017, 4279.35897443, 4284.10256418, 4369.35897464, 4274.48717956, 4288.84615392, 4198.20512807, 4164.23076903, 4066.79487138, 4251.53846154, 4237.30769231, 4308.58974373, 4279.48717956, 4122.30769203,0
4092.94871761, 4295.51282059, 4295.38461546, 4378.46153874, 4277.05128212, 4295.76923084, 4200.76923063, 4168.58974345, 4068.58974318, 4250.00000000, 4241.53846154, 4316.02564117, 4282.30769238, 4121.66666639,0
4091.02564068, 4289.10256418, 4297.30769238, 4375.76923105, 4276.41025648, 4296.53846161, 4203.46153840, 4182.17948704, 4072.94871761, 4257.17948718, 4239.35897436, 4323.20512835, 4285.25641033, 4120.76923050,0
4088.46153812, 4280.76923084, 4292.94871802, 4366.41025669, 4275.25641033, 4292.69230777, 4202.56410250, 4190.12820499, 4081.41025607, 4270.89743597, 4242.30769231, 4321.15384630, 4291.79487187, 4122.43589716,0
4089.87179453, 4282.05128212, 4291.41025648, 4360.89743611, 4271.53846161, 4291.15384623, 4202.56410250, 4192.17948704, 4086.28205094, 4273.84615392, 4245.38461539, 4318.58974373, 4300.51282066, 4118.84615357,0
4094.61538427, 4280.25641033, 4293.20512828, 4358.71794893, 4269.61538469, 4291.79487187, 4205.76923070, 4192.05128192, 4083.20512786, 4267.94871802, 4240.76923077, 4321.53846168, 4298.20512828, 4123.84615357,0
4098.07692273, 4288.07692315, 4300.00000014, 4363.84615406, 4280.25641033, 4302.17948732, 4217.56410250, 4197.30769217, 4088.07692273, 4274.35897443, 4247.30769231, 4330.89743604, 4296.53846161, 4122.17948691,0
