AF3,F7,F3,FC5,T7,P7,O1,O2,P8,T8,FC6,F4,F8,AF4,Label
4166.79487159, 4148.07692287, 4161.53846133, 4154.48717928, 4121.66666639, 4123.46153819, 4122.82051255, 4136.53846133, 4145.76923056, 4119.74358947, 4134.23076896, 4172.05128192, 4120.38461511, 4126.79487152,0
4155.12820492, 4137.43589723, 4144.10256390, 4144.99999980, 4118.84615357, 4107.05128178, 4106.15384588, 4125.64102537, 4132.17948691, 4101.66666632, 4122.05128178, 4152.05128185, 4098.07692273, 4124.99999973,0
4148.20512800, 4136.28205108, 4141.92307672, 4150.64102544, 4125.12820485, 4109.74358947, 4109.74358947, 4126.92307665, 4132.17948691, 4096.41025607, 4118.20512793, 4146.53846133, 4094.99999966, 4117.05128178,0
4169.87179474, 4141.02564082, 4150.89743569, 4151.53846133, 4122.94871767, 4123.46153819, 4127.82051255, 4140.25641005, 4144.99999980, 4110.76923050, 4130.89743562, 4157.30769210, 4117.43589716, 4125.76923050,0
4174.74358961, 4134.74358947, 4150.76923056, 4136.02564082, 4117.30769203, 4125.51282024, 4131.02564075, 4138.58974339, 4144.87179467, 4118.84615357, 4138.84615364, 4161.41025621, 4124.48717921, 4128.07692280,0
4159.74358954, 4135.76923056, 4150.76923056, 4142.94871774, 4124.23076896, 4125.12820485, 4127.94871767, 4129.74358947, 4138.07692287, 4111.92307665, 4133.84615357, 4161.53846133, 4112.82051255, 4118.71794844,0
4160.51282031, 4138.84615364, 4150.89743569, 4154.61538441, 4125.25640998, 4122.05128178, 4128.46153819, 4132.43589716, 4133.33333306, 4095.76923043, 4117.30769203, 4157.30769210, 4099.23076889, 4119.99999973,0
4162.94871774, 4132.30769203, 4149.23076903, 4142.69230749, 4112.82051255, 4115.89743562, 4130.76923050, 4141.53846133, 4137.56410236, 4095.89743555, 4113.20512793, 4153.58974339, 4097.05128171, 4120.38461511,0
4156.15384595, 4135.89743569, 4151.28205108, 4138.33333313, 4114.48717921, 4118.58974332, 4132.30769203, 4142.43589723, 4144.48717928, 4112.69230742, 4121.92307665, 4156.41025621, 4102.17948684, 4114.99999973,0
4162.43589723, 4138.07692287, 4145.64102544, 4138.58974339, 4123.58974332, 4117.94871767, 4124.10256383, 4132.69230742, 4132.56410229, 4102.43589709, 4106.79487152, 4146.79487159, 4092.30769196, 4123.46153819,0
4167.69230749, 4132.94871767, 4143.46153826, 4132.05128178, 4119.48717921, 4117.94871767, 4123.46153819, 4131.53846126, 4126.53846126, 4094.10256376, 4101.92307658, 4144.23076903, 4089.61538427, 4128.84615357,0
4158.46153826, 4134.23076896, 4147.56410236, 4138.97435877, 4120.38461511, 4121.66666639, 4126.41025614, 4130.89743562, 4131.28205101, 4102.05128171, 4115.76923050, 4153.07692287, 4095.76923043, 4122.43589716,0
4152.56410236, 4126.79487152, 4133.33333306, 4140.64102544, 4124.87179460, 4109.23076896, 4107.30769203, 4114.48717921, 4116.28205101, 4083.33333299, 4099.35897402, 4135.76923056, 4078.33333299, 4123.97435870,0
4148.20512800, 4108.84615357, 4113.58974332, 4122.56410229, 4114.61538434, 4095.38461504, 4092.69230735, 4107.05128178, 4103.84615357, 4065.12820472, 4076.92307658, 4111.66666639, 4061.53846113, 4126.53846126,0
4140.89743569, 4104.99999973, 4111.28205101, 4113.97435870, 4106.02564075, 4103.20512793, 4105.12820485, 4111.66666639, 4111.79487152, 4077.05128171, 4080.64102530, 4114.87179460, 4066.92307651, 4121.53846126,0
4147.69230749, 4109.35897408, 4115.89743562, 4112.82051255, 4109.35897408, 4110.89743562, 4111.66666639, 4110.25640998, 4115.25640998, 4081.53846119, 4083.20512786, 4122.05128178, 4066.92307651, 4124.23076896,0
4154.61538441, 4108.84615357, 4116.41025614, 4112.17948691, 4113.84615357, 4107.82051255, 4107.69230742, 4116.15384588, 4116.53846126, 4081.02564068, 4085.25640991, 4122.17948691, 4063.33333292, 4126.02564075,0
4145.12820492, 4106.92307665, 4113.33333306, 4113.58974332, 4113.20512793, 4105.51282024, 4109.74358947, 4124.87179460, 4122.05128178, 4092.82051248, 4094.61538427, 4121.79487152, 4069.99999966, 4119.23076896,0
4145.51282031, 4102.56410229, 4108.97435870, 4109.87179460, 4103.46153819, 4100.51282017, 4108.33333306, 4118.58974332, 4118.20512793, 4088.33333299, 4086.28205094, 4112.94871767, 4068.07692266, 4126.28205101,0
4155.89743569, 4108.97435870, 4118.97435870, 4109.48717921, 4099.74358940, 4104.61538434, 4110.51282024, 4119.23076896, 4121.66666639, 4085.51282017, 4084.74358940, 4114.99999973, 4068.84615343, 4129.99999973,0
4147.69230749, 4124.23076896, 4129.99999973, 4122.05128178, 4116.41025614, 4116.79487152, 4116.53846126, 4128.84615357, 4132.17948691, 4102.30769196, 4103.33333306, 4130.25640998, 4083.84615350, 4114.61538434,0
4140.64102544, 4126.92307665, 4126.53846126, 4133.84615357, 4129.35897408, 4112.05128178, 4109.61538434, 4126.53846126, 4128.20512793, 4101.41025607, 4102.56410229, 4130.38461511, 4085.89743555, 4115.12820485,0
4153.07692287, 4129.23076896, 4132.56410229, 4143.71794851, 4125.38461511, 4103.46153819, 4104.35897408, 4125.12820485, 4124.48717921, 4090.89743555, 4096.79487145, 4131.79487152, 4078.07692273, 4128.20512793,0
4150.76923056, 4136.79487159, 4145.51282031, 4150.38461518, 4123.71794844, 4107.30769203, 4110.12820485, 4125.51282024, 4129.10256383, 4096.28205094, 4108.97435870, 4146.28205108, 4084.10256376, 4121.66666639,0
4141.28205108, 4125.12820485, 4131.66666639, 4129.99999973, 4115.51282024, 4100.89743555, 4098.58974325, 4107.56410229, 4115.64102537, 4083.33333299, 4100.76923043, 4134.74358947, 4081.02564068, 4120.76923050,0
4150.38461518, 4114.23076896, 4114.48717921, 4115.89743562, 4105.64102537, 4093.97435863, 4088.07692273, 4097.43589709, 4102.30769196, 4060.76923036, 4080.89743555, 4115.89743562, 4070.64102530, 4131.28205101,0
4155.89743569, 4127.43589716, 4127.69230742, 4138.46153826, 4118.20512793, 4107.69230742, 4108.20512793, 4118.71794844, 4121.15384588, 4081.02564068, 4097.56410222, 4135.51282031, 4085.25640991, 4125.12820485,0
4150.76923056, 4126.92307665, 4135.12820485, 4144.35897415, 4123.46153819, 4110.89743562, 4115.25640998, 4129.87179460, 4133.20512793, 4102.30769196, 4112.05128178, 4149.23076903, 4093.58974325, 4119.61538434,0
4150.25641005, 4111.79487152, 4123.33333306, 4124.35897408, 4113.46153819, 4102.17948684, 4100.64102530, 4117.94871767, 4121.92307665, 4090.51282017, 4100.51282017, 4131.53846126, 4081.28205094, 4126.28205101,0
4148.46153826, 4116.02564075, 4123.97435870, 4123.33333306, 4114.48717921, 4105.51282024, 4104.74358947, 4121.02564075, 4124.23076896, 4089.23076889, 4102.05128171, 4126.66666639, 4081.02564068, 4123.84615357,0
4148.71794851, 4121.02564075, 4129.48717921, 4129.48717921, 4117.05128178, 4109.74358947, 4119.74358947, 4135.76923056, 4135.38461518, 4099.61538427, 4110.76923050, 4136.41025621, 4088.46153812, 4120.51282024,0
4149.99999980, 4103.07692280, 4120.12820485, 4114.74358947, 4106.66666639, 4102.56410229, 4111.53846126, 4125.89743562, 4127.43589716, 4093.46153812, 4102.05128171, 4130.51282024, 4083.33333299, 4123.84615357,0
4134.35897408, 4090.12820478, 4110.64102537, 4103.71794844, 4096.92307658, 4095.51282017, 4094.61538427, 4106.53846126, 4111.53846126, 4078.71794837, 4090.76923043, 4115.89743562, 4075.25640991, 4121.15384588,0
4135.25640998, 4105.25640998, 4116.02564075, 4111.02564075, 4099.87179453, 4099.87179453, 4096.66666632, 4108.46153819, 4108.20512793, 4073.84615350, 4088.58974325, 4113.58974332, 4072.43589709, 4124.23076896,0
4153.71794851, 4125.12820485, 4124.87179460, 4121.66666639, 4114.35897408, 4110.12820485, 4106.53846126, 4116.92307665, 4114.10256383, 4077.43589709, 4090.38461504, 4123.58974332, 4075.64102530, 4127.05128178,0
4148.07692287, 4119.99999973, 4128.46153819, 4123.46153819, 4121.53846126, 4113.07692280, 4106.28205101, 4113.46153819, 4117.17948691, 4078.58974325, 4094.61538427, 4131.15384588, 4081.92307658, 4119.10256383,0
4142.69230749, 4116.66666639, 4136.02564082, 4129.74358947, 4120.89743562, 4109.99999973, 4103.71794844, 4112.56410229, 4120.64102537, 4084.10256376, 4101.92307658, 4137.30769210, 4087.43589709, 4120.64102537,0
4158.58974339, 4144.99999980, 4152.69230749, 4152.05128185, 4133.33333306, 4122.56410229, 4119.35897408, 4127.56410229, 4133.84615357, 4108.33333306, 4114.23076896, 4154.10256390, 4101.15384581, 4126.53846126,0
4155.89743569, 4146.28205108, 4148.20512800, 4146.53846133, 4128.58974332, 4125.76923050, 4121.53846126, 4131.41025614, 4134.23076896, 4117.82051255, 4108.84615357, 4150.38461518, 4098.58974325, 4123.07692280,0
4142.94871774, 4101.79487145, 4119.61538434, 4111.02564075, 4098.58974325, 4094.99999966, 4086.53846119, 4108.58974332, 4108.58974332, 4088.46153812, 4085.89743555, 4118.71794844, 4070.51282017, 4124.61538434,0
4151.15384595, 4097.17948684, 4117.69230742, 4115.51282024, 4103.33333306, 4085.38461504, 4078.58974325, 4104.61538434, 4108.33333306, 4084.74358940, 4094.48717914, 4117.56410229, 4074.99999966, 4125.89743562,0
4153.46153826, 4136.92307672, 4145.89743569, 4153.33333313, 4135.25640998, 4116.92307665, 4113.84615357, 4132.43589716, 4138.97435877, 4122.30769203, 4130.51282024, 4151.41025621, 4113.71794844, 4112.56410229,0
4150.38461518, 4138.58974339, 4153.07692287, 4151.66666646, 4130.25640998, 4124.23076896, 4120.89743562, 4136.66666646, 4140.89743569, 4129.10256383, 4135.25640998, 4157.82051262, 4122.30769203, 4112.05128178,0
4155.89743569, 4114.74358947, 4137.30769210, 4128.20512793, 4109.23076896, 4099.48717914, 4098.97435863, 4117.05128178, 4123.46153819, 4104.61538434, 4112.17948691, 4138.58974339, 4106.79487152, 4123.33333306,0
4158.33333313, 4129.87179460, 4145.38461518, 4143.84615364, 4117.56410229, 4107.69230742, 4110.89743562, 4124.35897408, 4131.66666639, 4106.53846126, 4116.92307665, 4147.56410236, 4112.43589716, 4119.74358947,0
4159.99999980, 4156.15384595, 4166.79487159, 4166.28205108, 4132.94871767, 4134.74358947, 4134.74358947, 4138.46153826, 4140.76923056, 4122.43589716, 4143.58974339, 4171.41025628, 4123.84615357, 4116.28205101,0
4164.10256390, 4152.69230749, 4161.53846133, 4157.05128185, 4132.69230742, 4128.33333306, 4126.92307665, 4129.99999973, 4130.51282024, 4114.74358947, 4140.89743569, 4165.38461518, 4116.28205101, 4124.10256383,0
4156.02564082, 4140.64102544, 4144.10256390, 4142.43589723, 4125.89743562, 4113.46153819, 4112.82051255, 4124.35897408, 4129.35897408, 4104.99999973, 4119.61538434, 4142.30769210, 4104.48717921, 4121.66666639,0
4140.38461518, 4119.99999973, 4126.79487152, 4128.58974332, 4112.05128178, 4102.56410229, 4095.51282017, 4114.10256383, 4122.43589716, 4091.28205094, 4097.82051248, 4119.74358947, 4083.97435863, 4117.94871767,0
4136.28205108, 4094.61538427, 4110.51282024, 4112.82051255, 4096.15384581, 4083.20512786, 4075.76923043, 4092.69230735, 4099.61538427, 4068.84615343, 4078.97435863, 4104.10256383, 4059.48717907, 4122.17948691,0
4136.79487159, 4103.84615357, 4116.92307665, 4119.23076896, 4104.10256383, 4085.12820478, 4085.25640991, 4100.25640991, 4103.46153819, 4073.71794837, 4085.25640991, 4113.20512793, 4066.79487138, 4115.38461511,0
4139.61538441, 4123.58974332, 4132.69230742, 4130.76923050, 4117.94871767, 4106.02564075, 4106.41025614, 4120.76923050, 4122.82051255, 4087.30769196, 4092.82051248, 4127.30769203, 4082.69230735, 4113.97435870,0
4147.56410236, 4107.30769203, 4123.71794844, 4119.10256383, 4108.97435870, 4105.76923050, 4106.28205101, 4113.58974332, 4117.69230742, 4078.20512786, 4072.43589709, 4116.66666639, 4072.56410222, 4125.89743562,0
4146.02564082, 4090.25640991, 4113.33333306, 4109.61538434, 4096.02564068, 4095.25640991, 4100.38461504, 4103.84615357, 4108.07692280, 4071.79487145, 4068.33333292, 4108.58974332, 4064.87179446, 4122.69230742,0
4144.87179467, 4110.38461511, 4128.07692280, 4118.84615357, 4103.84615357, 4107.05128178, 4109.99999973, 4123.20512793, 4124.61538434, 4094.61538427, 4099.23076889, 4127.82051255, 4087.05128171, 4114.99999973,0
4162.94871774, 4131.66666639, 4145.76923056, 4132.94871767, 4120.76923050, 4123.97435870, 4125.64102537, 4145.51282031, 4147.43589723, 4124.35897408, 4123.58974332, 4151.02564082, 4113.46153819, 4124.87179460,0
4165.12820492, 4132.69230742, 4155.51282031, 4146.92307672, 4128.07692280, 4131.53846126, 4137.17948697, 4149.10256390, 4156.41025621, 4140.12820492, 4137.43589723, 4162.17948697, 4129.99999973, 4124.35897408,0
4146.66666646, 4126.02564075, 4157.17948697, 4144.74358954, 4119.74358947, 4135.12820485, 4137.94871774, 4144.48717928, 4151.53846133, 4140.64102544, 4146.66666646, 4161.41025621, 4137.82051262, 4114.61538434,0
4151.41025621, 4119.10256383, 4151.02564082, 4128.71794844, 4107.94871767, 4135.12820485, 4133.71794844, 4139.35897415, 4145.12820492, 4135.38461518, 4139.99999980, 4155.12820492, 4127.82051255, 4118.97435870,0
4163.97435877, 4128.07692280, 4154.61538441, 4130.38461511, 4119.35897408, 4138.71794851, 4139.23076903, 4138.20512800, 4148.07692287, 4142.43589723, 4140.12820492, 4158.84615364, 4122.82051255, 4120.25640998,0
4159.48717928, 4140.38461518, 4166.02564082, 4146.79487159, 4133.33333306, 4143.07692287, 4145.51282031, 4139.74358954, 4151.41025621, 4152.82051262, 4148.07692287, 4167.94871774, 4133.58974332, 4118.20512793,0
4159.48717928, 4136.41025621, 4165.51282031, 4149.23076903, 4126.79487152, 4142.56410236, 4144.48717928, 4140.76923056, 4146.41025621, 4148.33333313, 4145.64102544, 4168.97435884, 4134.48717921, 4123.97435870,0
4161.28205108, 4138.07692287, 4158.58974339, 4144.35897415, 4127.43589716, 4139.23076903, 4138.46153826, 4135.12820485, 4137.17948697, 4130.25640998, 4141.66666646, 4166.02564082, 4127.69230742, 4123.20512793,0
4156.41025621, 4152.69230749, 4160.51282031, 4151.15384595, 4143.07692287, 4140.12820492, 4133.07692280, 4127.17948691, 4132.82051255, 4121.92307665, 4135.89743569, 4165.76923056, 4125.12820485, 4116.79487152,0
4157.05128185, 4144.99999980, 4151.79487159, 4144.23076903, 4139.74358954, 4137.69230749, 4127.05128178, 4119.61538434, 4120.89743562, 4114.35897408, 4112.56410229, 4152.30769210, 4107.69230742, 4121.02564075,0
4144.10256390, 4114.74358947, 4121.66666639, 4118.20512793, 4122.94871767, 4126.02564075, 4114.35897408, 4107.82051255, 4105.89743562, 4086.92307658, 4086.92307658, 4122.82051255, 4076.15384581, 4120.76923050,0
4134.87179460, 4105.38461511, 4111.41025614, 4111.41025614, 4126.92307665, 4120.64102537, 4106.66666639, 4104.99999973, 4109.48717921, 4075.89743555, 4082.05128171, 4114.99999973, 4071.28205094, 4116.53846126,0
4150.89743569, 4118.07692280, 4132.17948691, 4125.64102537, 4134.87179460, 4118.58974332, 4104.35897408, 4104.48717921, 4115.25640998, 4091.92307658, 4090.38461504, 4131.41025614, 4083.97435863, 4123.58974332,0
4156.02564082, 4127.30769203, 4144.23076903, 4135.12820485, 4131.02564075, 4114.35897408, 4101.15384581, 4101.15384581, 4113.97435870, 4104.10256383, 4101.92307658, 4143.71794851, 4089.74358940, 4126.02564075,0
4151.41025621, 4134.10256383, 4144.23076903, 4141.53846133, 4128.07692280, 4116.28205101, 4106.28205101, 4111.53846126, 4126.41025614, 4114.74358947, 4114.87179460, 4151.66666646, 4104.74358947, 4119.35897408,0
4162.94871774, 4143.33333313, 4152.56410236, 4144.99999980, 4131.28205101, 4127.94871767, 4123.46153819, 4130.64102537, 4146.02564082, 4137.56410236, 4123.97435870, 4162.69230749, 4126.92307665, 4120.38461511,0
4164.87179467, 4147.82051262, 4161.92307672, 4147.17948697, 4141.66666646, 4138.07692287, 4136.66666646, 4137.82051262, 4152.43589723, 4156.15384595, 4141.92307672, 4174.61538448, 4138.33333313, 4123.58974332,0
4152.43589723, 4148.07692287, 4160.38461518, 4153.84615364, 4148.71794851, 4143.33333313, 4141.28205108, 4140.76923056, 4153.07692287, 4155.76923056, 4153.33333313, 4177.94871781, 4139.35897415, 4120.38461511,0
4162.17948697, 4141.66666646, 4143.58974339, 4139.48717928, 4142.05128185, 4143.58974339, 4142.17948697, 4144.48717928, 4147.05128185, 4137.05128185, 4118.84615357, 4154.61538441, 4129.87179460, 4124.87179460,0
4168.07692287, 4130.76923050, 4128.84615357, 4119.48717921, 4137.94871774, 4138.07692287, 4137.05128185, 4134.23076896, 4132.82051255, 4117.56410229, 4096.53846119, 4136.02564082, 4112.82051255, 4127.56410229,0
4157.30769210, 4148.46153826, 4152.94871774, 4145.25641005, 4154.99999980, 4141.92307672, 4140.12820492, 4130.76923050, 4135.51282031, 4124.74358947, 4142.17948697, 4167.43589723, 4119.61538434, 4119.99999973,0
4160.51282031, 4176.28205115, 4177.94871781, 4168.71794858, 4159.87179467, 4143.20512800, 4142.17948697, 4132.17948691, 4138.46153826, 4135.64102544, 4177.56410243, 4194.74358961, 4134.23076896, 4122.43589716,0
4161.02564082, 4157.94871774, 4157.05128185, 4138.84615364, 4136.92307672, 4129.23076896, 4130.89743562, 4123.71794844, 4127.56410229, 4122.17948691, 4157.82051262, 4173.97435884, 4119.74358947, 4127.30769203,0
4157.82051262, 4147.94871774, 4162.05128185, 4135.38461518, 4139.23076903, 4136.53846133, 4140.25641005, 4136.79487159, 4138.33333313, 4125.64102537, 4165.38461518, 4183.97435884, 4131.79487152, 4121.15384588,0
4174.99999986, 4184.87179474, 4209.48717942, 4171.53846140, 4162.69230749, 4160.64102544, 4164.99999980, 4159.74358954, 4163.46153826, 4154.48717928, 4203.07692301, 4228.33333327, 4172.69230756, 4123.20512793,0
4177.69230756, 4188.07692294, 4206.53846147, 4164.48717928, 4155.38461518, 4157.82051262, 4162.94871774, 4154.99999980, 4159.61538441, 4160.25641005, 4196.66666653, 4222.30769224, 4162.17948697, 4128.33333306,0
4158.46153826, 4153.33333313, 4166.41025621, 4132.17948691, 4136.79487159, 4147.30769210, 4157.94871774, 4149.87179467, 4149.74358954, 4151.41025621, 4171.41025628, 4191.02564089, 4129.87179460, 4122.43589716,0
4167.56410236, 4148.97435877, 4162.82051262, 4123.07692280, 4139.74358954, 4157.69230749, 4174.23076910, 4162.82051262, 4158.07692287, 4151.28205108, 4167.94871774, 4187.05128192, 4134.99999973, 4124.61538434,0
4179.87179474, 4154.61538441, 4173.20512807, 4119.48717921, 4141.53846133, 4159.74358954, 4177.30769217, 4164.10256390, 4160.25641005, 4149.23076903, 4168.33333320, 4190.51282038, 4144.23076903, 4126.92307665,0
4159.61538441, 4141.41025621, 4162.05128185, 4108.46153819, 4132.30769203, 4147.17948697, 4161.53846133, 4153.46153826, 4153.71794851, 4149.10256390, 4157.69230749, 4183.58974345, 4138.07692287, 4116.79487152,0
4148.84615364, 4130.51282024, 4145.64102544, 4097.56410222, 4129.10256383, 4141.66666646, 4152.43589723, 4147.82051262, 4150.76923056, 4148.97435877, 4143.84615364, 4168.46153833, 4127.17948691, 4118.71794844,0
4159.48717928, 4134.35897408, 4145.89743569, 4094.35897402, 4134.99999973, 4149.48717928, 4161.92307672, 4157.56410236, 4160.25641005, 4154.35897415, 4150.51282031, 4165.38461518, 4130.51282024, 4123.46153819,0
4164.35897415, 4149.48717928, 4163.20512800, 4110.76923050, 4143.07692287, 4164.35897415, 4178.58974345, 4174.35897422, 4174.74358961, 4171.41025628, 4172.82051269, 4188.20512807, 4154.23076903, 4117.82051255,0
4164.35897415, 4141.79487159, 4161.41025621, 4112.94871767, 4135.25640998, 4154.10256390, 4164.74358954, 4159.74358954, 4157.94871774, 4161.15384595, 4165.64102544, 4186.66666653, 4145.51282031, 4122.56410229,0
4157.56410236, 4112.17948691, 4134.87179460, 4089.10256376, 4123.07692280, 4130.25640998, 4135.51282031, 4131.02564075, 4131.02564075, 4128.58974332, 4135.51282031, 4152.05128185, 4106.53846126, 4127.05128178,0
4153.58974339, 4120.51282024, 4134.48717921, 4095.64102530, 4133.71794844, 4141.02564082, 4143.07692287, 4140.25641005, 4141.79487159, 4130.89743562, 4137.56410236, 4151.92307672, 4111.28205101, 4122.05128178,0
4165.51282031, 4160.12820492, 4162.30769210, 4129.87179460, 4156.41025621, 4168.20512807, 4167.05128185, 4163.07692287, 4161.02564082, 4151.92307672, 4159.61538441, 4179.10256397, 4147.43589723, 4120.51282024,0
4167.82051262, 4164.35897415, 4162.05128185, 4132.69230742, 4161.53846133, 4166.41025621, 4161.79487159, 4158.33333313, 4152.69230749, 4146.53846133, 4155.76923056, 4174.10256397, 4143.84615364, 4123.20512793,0
4152.17948697, 4131.66666639, 4133.71794844, 4108.71794844, 4148.58974339, 4147.30769210, 4142.82051262, 4140.76923056, 4143.84615364, 4133.71794844, 4135.64102544, 4147.43589723, 4107.56410229, 4123.58974332,0
4148.33333313, 4127.30769203, 4131.02564075, 4113.46153819, 4148.84615364, 4144.61538441, 4142.56410236, 4139.48717928, 4150.12820492, 4136.79487159, 4133.84615357, 4142.17948697, 4098.33333299, 4122.43589716,0
4162.05128185, 4156.28205108, 4152.94871774, 4138.20512800, 4163.71794851, 4159.23076903, 4157.05128185, 4154.61538441, 4159.23076903, 4154.10256390, 4152.56410236, 4157.69230749, 4127.43589716, 4122.17948691,0
4160.64102544, 4166.66666646, 4156.53846133, 4139.99999980, 4164.74358954, 4166.28205108, 4158.84615364, 4157.82051262, 4161.66666646, 4167.05128185, 4163.33333313, 4167.82051262, 4145.38461518, 4121.66666639,0
4160.38461518, 4148.97435877, 4147.69230749, 4129.10256383, 4153.58974339, 4153.46153826, 4146.41025621, 4144.61538441, 4152.30769210, 4151.66666646, 4153.58974339, 4163.20512800, 4127.82051255, 4127.17948691,0
4171.53846140, 4145.38461518, 4156.15384595, 4134.23076896, 4155.38461518, 4150.38461518, 4150.12820492, 4149.23076903, 4153.33333313, 4140.51282031, 4149.99999980, 4161.02564082, 4127.05128178, 4127.94871767,0
4165.64102544, 4163.84615364, 4168.46153833, 4144.48717928, 4157.82051262, 4165.51282031, 4166.79487159, 4166.15384595, 4168.58974345, 4159.23076903, 4158.84615364, 4168.84615371, 4139.48717928, 4118.71794844,0
4158.33333313, 4171.41025628, 4166.41025621, 4148.71794851, 4155.25641005, 4167.94871774, 4168.33333320, 4167.82051262, 4171.02564089, 4170.89743576, 4162.56410236, 4172.82051269, 4139.23076903, 4118.07692280,0
4166.02564082, 4165.12820492, 4160.51282031, 4151.41025621, 4159.87179467, 4158.58974339, 4157.30769210, 4159.10256390, 4159.48717928, 4152.82051262, 4157.17948697, 4163.20512800, 4136.41025621, 4128.33333306,0
4159.23076903, 4147.82051262, 4146.15384595, 4135.25640998, 4146.79487159, 4147.05128185, 4141.15384595, 4144.74358954, 4146.02564082, 4126.02564075, 4136.02564082, 4139.61538441, 4112.30769203, 4129.87179460,0
4154.48717928, 4142.43589723, 4138.58974339, 4123.58974332, 4132.82051255, 4141.92307672, 4136.02564082, 4141.02564082, 4145.89743569, 4125.51282024, 4129.35897408, 4133.97435870, 4100.38461504, 4125.64102537,0
4169.87179474, 4164.48717928, 4157.69230749, 4143.58974339, 4152.56410236, 4154.74358954, 4151.41025621, 4155.64102544, 4158.71794851, 4146.66666646, 4158.46153826, 4156.41025621, 4136.92307672, 4126.66666639,0
4159.87179467, 4167.30769210, 4166.15384595, 4147.94871774, 4166.28205108, 4162.56410236, 4156.15384595, 4155.12820492, 4158.07692287, 4149.87179467, 4173.46153833, 4163.20512800, 4154.61538441, 4119.99999973,0
4152.05128185, 4155.76923056, 4161.02564082, 4141.15384595, 4154.61538441, 4158.58974339, 4152.30769210, 4147.94871774, 4150.64102544, 4145.38461518, 4171.15384602, 4161.15384595, 4140.25641005, 4117.94871767,0
4173.71794858, 4170.89743576, 4174.10256397, 4160.12820492, 4156.53846133, 4164.99999980, 4167.43589723, 4162.82051262, 4161.15384595, 4158.20512800, 4188.33333320, 4178.97435884, 4156.15384595, 4124.87179460,0
4166.79487159, 4166.53846133, 4169.74358961, 4153.97435877, 4154.23076903, 4159.35897415, 4162.43589723, 4165.38461518, 4160.89743569, 4149.87179467, 4181.41025628, 4175.12820499, 4162.05128185, 4123.20512793,0
4147.17948697, 4130.12820485, 4143.33333313, 4120.89743562, 4134.48717921, 4137.17948697, 4135.76923056, 4147.30769210, 4143.33333313, 4128.20512793, 4147.56410236, 4146.92307672, 4129.23076896, 4121.53846126,0
4156.41025621, 4124.74358947, 4143.33333313, 4123.07692280, 4133.07692280, 4133.71794844, 4136.15384595, 4147.82051262, 4147.17948697, 4139.87179467, 4153.33333313, 4146.66666646, 4134.99999973, 4126.15384588,0
4152.82051262, 4138.71794851, 4152.17948697, 4131.02564075, 4132.82051255, 4135.89743569, 4139.74358954, 4149.87179467, 4152.94871774, 4148.33333313, 4170.38461525, 4158.07692287, 4151.92307672, 4123.97435870,0
4146.15384595, 4137.56410236, 4147.56410236, 4126.15384588, 4124.10256383, 4131.15384588, 4086.53846119, 4141.41025621, 4145.12820492, 4140.12820492, 4168.33333320, 4158.33333313, 4141.53846133, 4123.33333306,0
4160.64102544, 4135.25640998, 4145.89743569, 4134.99999973, 4134.61538434, 4130.76923050, 3953.20512758, 4138.58974339, 4140.38461518, 4138.97435877, 4166.92307672, 4156.53846133, 4135.89743569, 4127.82051255,0
4153.33333313, 4133.07692280, 4142.05128185, 4135.12820485, 4137.69230749, 4125.38461511, 4133.46153819, 4134.10256383, 4135.89743569, 4130.51282024, 4156.53846133, 4145.89743569, 4131.66666639, 4125.64102537,0
4146.53846133, 4143.20512800, 4146.53846133, 4132.69230742, 4131.92307665, 4135.38461518, 4333.20512842, 4143.33333313, 4145.25641005, 4137.30769210, 4157.30769210, 4149.48717928, 4135.64102544, 4123.97435870,0
4167.56410236, 4155.76923056, 4160.25641005, 4144.74358954, 4150.25641005, 4155.64102544, 3841.41025558, 4160.76923056, 4163.33333313, 4162.30769210, 4174.99999986, 4167.05128185, 4153.84615364, 4127.43589716,0
4173.33333320, 4151.02564082, 4161.66666646, 4148.46153826, 4163.71794851, 4147.30769210, 4752.05128310, 4152.05128185, 4157.17948697, 4157.17948697, 4170.51282038, 4163.97435877, 4164.10256390, 4128.33333306,0
4161.41025621, 4157.30769210, 4166.92307672, 4152.43589723, 4159.61538441, 4140.12820492, 7246.66667299, 4138.97435877, 4147.05128185, 4146.92307672, 4166.28205108, 4164.87179467, 4156.92307672, 4123.58974332,0
4167.69230749, 4159.99999980, 4168.07692287, 4153.20512800, 4157.56410236, 4145.64102544, 7115.38462143, 4144.23076903, 4150.76923056, 4156.28205108, 4175.51282038, 4173.33333320, 4141.66666646, 4123.84615357,0
4168.20512807, 4144.74358954, 4152.56410236, 4139.61538441, 4152.82051262, 4139.74358954, 4522.43589800, 4148.07692287, 4149.87179467, 4150.12820492, 4166.79487159, 4162.82051262, 4133.58974332, 4120.12820485,0
4151.41025621, 4142.56410236, 4150.38461518, 4134.87179460, 4148.71794851, 4137.30769210, 3707.30769113, 4142.30769210, 4144.99999980, 4134.61538434, 4154.99999980, 4152.43589723, 4138.07692287, 4113.20512793,0
4156.41025621, 4149.99999980, 4161.41025621, 4143.07692287, 4156.53846133, 4143.97435877, 4261.66666667, 4138.07692287, 4143.46153826, 4136.53846133, 4160.76923056, 4158.07692287, 4145.38461518, 4122.43589716,0
4162.17948697, 4148.07692287, 4156.92307672, 4143.84615364, 4161.53846133, 4143.20512800, 3916.41025572, 4141.41025621, 4143.33333313, 4143.07692287, 4159.23076903, 4157.43589723, 4141.28205108, 4126.15384588,0
4151.53846133, 4136.79487159, 4139.10256390, 4129.23076896, 4147.30769210, 4132.69230742, 3633.46153715, 4143.58974339, 4141.41025621, 4136.28205108, 4141.02564082, 4140.38461518, 4131.02564075, 4118.07692280,0
4152.56410236, 4121.79487152, 4128.97435870, 4108.46153819, 4134.99999973, 4122.43589716, 3801.79487083, 4133.58974332, 4133.84615357, 4124.61538434, 4128.58974332, 4127.69230742, 4123.71794844, 4120.76923050,0
4155.76923056, 4127.43589716, 4135.12820485, 4110.38461511, 4140.76923056, 4128.58974332, 3771.02563999, 4130.25640998, 4131.28205101, 4128.58974332, 4134.74358947, 4135.76923056, 4132.43589716, 4121.15384588,0
4153.97435877, 4147.69230749, 4145.76923056, 4132.82051255, 4149.35897415, 4145.12820492, 3769.23076819, 4138.71794851, 4138.71794851, 4138.07692287, 4146.66666646, 4149.48717928, 4142.30769210, 4114.74358947,0
4159.61538441, 4144.48717928, 4145.89743569, 4134.10256383, 4144.48717928, 4141.92307672, 3752.17948614, 4134.10256383, 4136.53846133, 4132.17948691, 4147.05128185, 4146.92307672, 4134.23076896, 4120.89743562,0
4155.51282031, 4137.94871774, 4144.10256390, 4127.43589716, 4141.92307672, 4134.48717921, 3727.82051171, 4129.48717921, 4133.46153819, 4127.69230742, 4139.10256390, 4142.82051262, 4130.89743562, 4123.07692280,0
4146.53846133, 4136.15384595, 4137.05128185, 4126.92307665, 4138.46153826, 4133.71794844, 3725.12820402, 4133.46153819, 4134.23076896, 4124.74358947, 4128.84615357, 4138.20512800, 4126.53846126, 4117.69230742,0
4152.17948697, 4124.35897408, 4124.10256383, 4118.33333306, 4120.76923050, 4122.94871767, 3701.15384498, 4128.20512793, 4126.28205101, 4111.28205101, 4127.69230742, 4126.41025614, 4115.12820485, 4123.46153819,0
4159.61538441, 4130.38461511, 4137.56410236, 4125.76923050, 4125.38461511, 4125.38461511, 3704.87179369, 4137.56410236, 4134.35897408, 4120.25640998, 4148.71794851, 4134.61538434, 4128.20512793, 4123.58974332,0
4153.58974339, 4144.10256390, 4153.58974339, 4139.23076903, 4144.35897415, 4139.74358954, 3715.38461428, 4154.74358954, 4152.69230749, 4142.30769210, 4155.89743569, 4146.66666646, 4145.76923056, 4114.61538434,0
4148.97435877, 4132.69230742, 4137.05128185, 4124.74358947, 4131.53846126, 4131.41025614, 3704.23076805, 4141.28205108, 4143.07692287, 4134.35897408, 4138.07692287, 4135.51282031, 4136.53846133, 4117.82051255,0
4147.56410236, 4118.58974332, 4119.61538434, 4109.35897408, 4112.69230742, 4115.76923050, 3687.17948600, 4123.46153819, 4124.99999973, 4116.28205101, 4128.97435870, 4123.71794844, 4123.46153819, 4120.12820485,0
4143.46153826, 4121.02564075, 4124.61538434, 4113.97435870, 4119.10256383, 4115.89743562, 3685.12820395, 4128.84615357, 4128.46153819, 4115.12820485, 4131.15384588, 4126.41025614, 4125.12820485, 4117.43589716,0
4157.94871774, 4128.20512793, 4136.53846133, 4117.82051255, 4122.82051255, 4117.05128178, 3684.87179369, 4132.94871767, 4133.84615357, 4119.35897408, 4132.94871767, 4136.53846133, 4131.28205101, 4126.79487152,0
4161.15384595, 4125.12820485, 4131.92307665, 4107.94871767, 4108.58974332, 4109.23076896, 3675.89743472, 4122.17948691, 4122.82051255, 4113.84615357, 4125.89743562, 4135.25640998, 4126.53846126, 4126.02564075,0
4140.51282031, 4108.84615357, 4114.48717921, 4091.66666632, 4103.20512793, 4103.20512793, 3670.76922952, 4115.38461511, 4114.61538434, 4107.43589716, 4113.97435870, 4117.43589716, 4113.33333306, 4118.20512793,0
4146.79487159, 4108.71794844, 4117.30769203, 4096.28205094, 4116.79487152, 4110.51282024, 3678.33333216, 4124.87179460, 4126.53846126, 4117.94871767, 4120.25640998, 4118.07692280, 4117.30769203, 4125.76923050,0
4166.02564082, 4129.23076896, 4141.41025621, 4125.25640998, 4130.25640998, 4127.17948691, 3692.05128087, 4141.92307672, 4144.87179467, 4139.48717928, 4140.64102544, 4144.23076903, 4138.20512800, 4128.20512793,0
4154.35897415, 4130.76923050, 4142.56410236, 4125.89743562, 4121.79487152, 4128.97435870, 3696.02563985, 4142.43589723, 4141.41025621, 4139.10256390, 4139.35897415, 4146.02564082, 4138.46153826, 4120.76923050,0
4143.58974339, 4115.76923050, 4124.61538434, 4101.41025607, 4110.64102537, 4113.33333306, 3686.15384498, 4126.28205101, 4124.35897408, 4117.17948691, 4118.07692280, 4125.64102537, 4120.38461511, 4126.15384588,0
4153.97435877, 4123.84615357, 4132.94871767, 4110.51282024, 4118.07692280, 4109.99999973, 3684.10256293, 4131.15384588, 4132.30769203, 4126.79487152, 4126.02564075, 4136.79487159, 4135.76923056, 4127.17948691,0
4154.10256390, 4137.82051262, 4147.05128185, 4127.05128178, 4122.17948691, 4118.20512793, 3691.02563985, 4144.23076903, 4148.58974339, 4149.23076903, 4151.66666646, 4154.61538441, 4159.87179467, 4115.89743562,0
4147.05128185, 4122.30769203, 4130.76923050, 4108.58974332, 4111.66666639, 4112.30769203, 3686.79487062, 4128.71794844, 4134.48717921, 4126.02564075, 4138.71794851, 4133.33333306, 4136.02564082, 4119.10256383,0
4147.56410236, 4111.92307665, 4114.23076896, 4099.48717914, 4113.71794844, 4106.92307665, 3682.43589626, 4116.53846126, 4120.89743562, 4099.35897402, 4107.17948691, 4113.07692280, 4109.48717921, 4125.12820485,0
4147.82051262, 4135.25640998, 4130.25640998, 4129.23076896, 4133.07692280, 4122.56410229, 3697.69230651, 4134.99999973, 4140.38461518, 4127.69230742, 4120.25640998, 4136.28205108, 4134.35897408, 4116.28205101,0
4147.43589723, 4146.41025621, 4150.89743569, 4141.15384595, 4137.82051262, 4136.02564082, 3711.28205017, 4145.64102544, 4153.84615364, 4155.51282031, 4153.46153826, 4157.30769210, 4154.61538441, 4115.76923050,0
4143.33333313, 4110.64102537, 4124.10256383, 4102.43589709, 4118.97435870, 4117.94871767, 3691.92307575, 4123.20512793, 4127.43589716, 4121.41025614, 4128.71794844, 4126.15384588, 4119.87179460, 4126.41025614,0
4134.99999973, 4100.64102530, 4102.17948684, 4097.82051248, 4119.10256383, 4106.28205101, 3683.58974241, 4114.10256383, 4117.82051255, 4106.15384588, 4099.35897402, 4109.74358947, 4107.43589716, 4119.74358947,0
4147.05128185, 4140.64102544, 4136.15384595, 4144.61538441, 4141.92307672, 4124.48717921, 3707.94871677, 4130.38461511, 4141.79487159, 4144.99999980, 4127.94871767, 4144.74358954, 4144.10256390, 4117.82051255,0
4164.23076903, 4147.56410236, 4160.25641005, 4149.74358954, 4143.84615364, 4132.69230742, 3719.23076812, 4133.97435870, 4147.56410236, 4157.43589723, 4151.41025621, 4161.79487159, 4157.82051262, 4130.76923050,0
4149.87179467, 4120.12820485, 4137.69230749, 4116.92307665, 4126.02564075, 4121.15384588, 3708.33333216, 4127.43589716, 4135.38461518, 4135.12820485, 4137.30769210, 4141.28205108, 4138.84615364, 4126.79487152,0
4142.94871774, 4119.74358947, 4127.94871767, 4114.48717921, 4124.35897408, 4115.89743562, 3708.58974241, 4130.12820485, 4137.69230749, 4127.82051255, 4128.20512793, 4136.79487159, 4131.79487152, 4121.02564075,0
4160.89743569, 4133.20512793, 4146.15384595, 4132.82051255, 4131.41025614, 4121.92307665, 3720.25640915, 4138.33333313, 4147.56410236, 4140.89743569, 4137.30769210, 4151.41025621, 4146.41025621, 4125.89743562,0
4158.46153826, 4129.61538434, 4148.46153826, 4135.38461518, 4129.48717921, 4123.46153819, 3721.41025530, 4139.61538441, 4144.87179467, 4146.41025621, 4140.38461518, 4151.79487159, 4151.79487159, 4122.30769203,0
4144.23076903, 4119.10256383, 4136.79487159, 4122.30769203, 4118.33333306, 4111.15384588, 3714.61538351, 4130.64102537, 4134.87179460, 4137.30769210, 4132.82051255, 4139.99999980, 4137.17948697, 4121.15384588,0
4149.48717928, 4117.43589716, 4133.71794844, 4113.46153819, 4112.17948691, 4104.10256383, 3715.12820402, 4122.43589716, 4129.99999973, 4126.66666639, 4129.23076896, 4137.82051262, 4129.23076896, 4126.28205101,0
4145.12820492, 4110.25640998, 4122.56410229, 4106.66666639, 4107.94871767, 4102.82051255, 3715.25640915, 4116.15384588, 4122.56410229, 4115.76923050, 4122.69230742, 4133.71794844, 4128.07692280, 4122.05128178,0
4134.10256383, 4091.41025607, 4101.79487145, 4087.94871761, 4095.12820478, 4094.48717914, 3708.20512703, 4110.51282024, 4111.79487152, 4099.35897402, 4103.71794844, 4111.92307665, 4111.92307665, 4126.15384588,0
4141.79487159, 4104.61538434, 4116.02564075, 4096.28205094, 4109.61538434, 4109.10256383, 3725.64102453, 4120.89743562, 4125.25640998, 4106.41025614, 4110.12820485, 4117.82051255, 4117.82051255, 4129.87179460,0
4150.38461518, 4138.71794851, 4151.15384595, 4131.92307665, 4143.46153826, 4137.69230749, 3756.79487076, 4138.46153826, 4150.25641005, 4137.05128185, 4141.28205108, 4153.97435877, 4150.38461518, 4117.05128178,0
4146.02564082, 4126.41025614, 4141.15384595, 4124.87179460, 4134.61538434, 4124.10256383, 3747.43589640, 4126.92307665, 4137.82051262, 4131.15384588, 4134.87179460, 4149.61538441, 4145.76923056, 4116.41025614,0
4143.07692287, 4097.17948684, 4113.20512793, 4098.46153812, 4107.30769203, 4099.35897402, 3724.48717838, 4104.74358947, 4113.84615357, 4102.56410229, 4107.56410229, 4118.20512793, 4117.56410229, 4127.43589716,0
4146.53846133, 4111.79487152, 4122.43589716, 4112.56410229, 4119.61538434, 4112.56410229, 3737.82051171, 4113.07692280, 4121.41025614, 4108.33333306, 4114.48717921, 4122.82051255, 4119.48717921, 4125.76923050,0
4141.28205108, 4108.71794844, 4121.53846126, 4107.17948691, 4120.64102537, 4107.94871767, 3736.79487069, 4117.94871767, 4120.76923050, 4106.53846126, 4106.41025614, 4121.79487152, 4113.20512793, 4123.07692280,0
4129.74358947, 4063.71794830, 4084.74358940, 4062.56410215, 4077.17948684, 4064.61538420, 3696.41025523, 4091.53846119, 4094.23076889, 4068.07692266, 4058.71794830, 4082.56410222, 4078.58974325, 4127.82051255,0
4135.89743569, 4087.30769196, 4099.23076889, 4084.74358940, 4086.41025607, 4077.43589709, 3713.84615274, 4099.99999966, 4112.30769203, 4084.99999966, 4076.79487145, 4101.02564068, 4098.97435863, 4119.61538434,0
4159.87179467, 4151.92307672, 4159.74358954, 4146.41025621, 4139.74358954, 4136.41025621, 3779.23076826, 4147.82051262, 4159.74358954, 4150.38461518, 4146.15384595, 4166.79487159, 4156.66666646, 4115.38461511,0
4166.02564082, 4146.53846133, 4170.12820499, 4146.66666646, 4143.84615364, 4145.38461518, 3794.61538365, 4158.97435877, 4163.84615364, 4161.15384595, 4156.41025621, 4175.64102551, 4162.05128185, 4125.12820485,0
4146.28205108, 4115.51282024, 4140.12820492, 4120.12820485, 4120.38461511, 4119.74358947, 3773.71794768, 4138.46153826, 4140.25641005, 4129.87179460, 4123.97435870, 4144.61538441, 4134.10256383, 4124.23076896,0
4139.74358954, 4116.02564075, 4126.92307665, 4112.82051255, 4112.94871767, 4112.17948691, 3763.33333229, 4123.20512793, 4123.07692280, 4109.61538434, 4110.12820485, 4132.05128178, 4120.38461511, 4122.69230742,0
4144.74358954, 4098.97435863, 4116.28205101, 4096.53846119, 4100.51282017, 4102.69230742, 3748.33333229, 4104.74358947, 4105.12820485, 4091.41025607, 4097.82051248, 4117.56410229, 4104.99999973, 4129.10256383,0
4137.56410236, 4080.89743555, 4108.33333306, 4086.15384581, 4096.92307658, 4096.53846119, 3747.30769127, 4102.94871767, 4107.69230742, 4089.87179453, 4091.15384581, 4106.92307665, 4098.84615350, 4126.02564075,0
4137.94871774, 4103.33333306, 4116.92307665, 4098.20512786, 4111.02564075, 4107.17948691, 3769.87179383, 4121.92307665, 4126.92307665, 4109.10256383, 4104.61538434, 4116.92307665, 4112.17948691, 4124.35897408,0
4141.02564082, 4104.74358947, 4106.15384588, 4087.43589709, 4102.17948684, 4093.07692273, 3765.51281947, 4112.30769203, 4113.84615357, 4096.28205094, 4094.61538427, 4106.66666639, 4105.64102537, 4128.58974332,0
4135.64102544, 4091.92307658, 4099.74358940, 4081.66666632, 4095.89743555, 4082.43589709, 3759.10256306, 4099.99999966, 4103.84615357, 4085.25640991, 4089.35897402, 4104.61538434, 4106.79487152, 4121.53846126,0
4144.48717928, 4105.51282024, 4128.20512793, 4105.51282024, 4109.74358947, 4106.41025614, 3784.48717852, 4121.92307665, 4129.35897408, 4115.64102537, 4116.41025614, 4136.79487159, 4134.61538434, 4116.79487152,0
4160.51282031, 4110.64102537, 4140.89743569, 4111.41025614, 4111.66666639, 4116.41025614, 3798.07692211, 4133.20512793, 4138.33333313, 4129.35897408, 4122.30769203, 4144.23076903, 4138.71794851, 4126.28205101,0
4153.58974339, 4102.56410229, 4128.84615357, 4101.41025607, 4108.58974332, 4104.74358947, 3792.82051185, 4123.33333306, 4122.82051255, 4109.74358947, 4104.23076896, 4124.74358947, 4124.10256383, 4126.28205101,0
4137.43589723, 4106.92307665, 4129.74358947, 4105.89743562, 4111.79487152, 4107.30769203, 3796.41025544, 4123.71794844, 4122.94871767, 4105.25640998, 4101.79487145, 4123.33333306, 4125.51282024, 4119.87179460,0
4148.84615364, 4104.87179460, 4131.66666639, 4105.38461511, 4108.07692280, 4111.79487152, 3800.51281954, 4127.43589716, 4133.33333306, 4116.41025614, 4109.23076896, 4127.82051255, 4126.02564075, 4130.12820485,0
4149.35897415, 4095.25640991, 4117.43589716, 4094.48717914, 4105.64102537, 4107.56410229, 3801.53846057, 4124.87179460, 4130.25640998, 4111.79487152, 4106.79487152, 4116.66666639, 4115.51282024, 4128.20512793,0
4127.43589716, 4091.28205094, 4104.74358947, 4091.28205094, 4109.61538434, 4107.43589716, 3805.12820416, 4119.61538434, 4117.05128178, 4094.48717914, 4099.87179453, 4106.28205101, 4107.30769203, 4113.58974332,0
4133.20512793, 4080.51282017, 4102.94871767, 4083.33333299, 4103.07692280, 4104.48717921, 3804.61538365, 4115.12820485, 4110.12820485, 4086.53846119, 4090.12820478, 4103.33333306, 4103.33333306, 4122.43589716,0
4144.87179467, 4083.07692273, 4114.35897408, 4085.89743555, 4101.92307658, 4103.46153819, 3809.10256320, 4124.48717921, 4122.82051255, 4102.43589709, 4096.41025607, 4112.69230742, 4114.87179460, 4127.05128178,0
4142.94871774, 4108.84615357, 4133.58974332, 4114.99999973, 4111.79487152, 4111.02564075, 3824.74358884, 4137.82051262, 4137.05128185, 4125.38461511, 4122.56410229, 4133.58974332, 4134.48717921, 4117.69230742,0
4153.58974339, 4124.48717921, 4141.66666646, 4128.20512793, 4116.79487152, 4119.99999973, 3838.46153756, 4136.41025621, 4135.25640998, 4134.23076896, 4138.07692287, 4143.58974339, 4144.48717928, 4122.94871767,0
4152.05128185, 4112.69230742, 4129.10256383, 4105.25640998, 4113.07692280, 4117.56410229, 3835.12820423, 4128.20512793, 4128.33333306, 4130.38461511, 4127.69230742, 4131.02564075, 4140.38461518, 4123.97435870,0
4137.94871774, 4106.66666639, 4127.56410229, 4104.74358947, 4115.64102537, 4113.46153819, 3832.82051192, 4137.30769210, 4140.76923056, 4134.87179460, 4121.15384588, 4128.84615357, 4140.12820492, 4114.61538434,0
4159.35897415, 4124.23076896, 4147.56410236, 4138.84615364, 4127.82051255, 4126.92307665, 3852.82051199, 4158.07692287, 4163.58974339, 4153.97435877, 4136.02564082, 4151.28205108, 4153.97435877, 4123.97435870,0
4165.12820492, 4139.48717928, 4158.33333313, 4151.41025621, 4137.94871774, 4145.25641005, 3877.17948642, 4164.74358954, 4168.20512807, 4166.53846133, 4153.20512800, 4164.74358954, 4166.92307672, 4123.20512793,0
4140.12820492, 4126.92307665, 4143.58974339, 4130.89743562, 4133.58974332, 4136.28205108, 3870.76922994, 4147.82051262, 4147.43589723, 4148.33333313, 4149.35897415, 4149.23076903, 4156.66666646, 4116.02564075,0
4146.66666646, 4098.97435863, 4124.10256383, 4109.23076896, 4111.41025614, 4107.56410229, 3846.15384532, 4130.76923050, 4128.71794844, 4114.35897408, 4121.28205101, 4122.43589716, 4129.61538434, 4130.89743562,0
4145.51282031, 4104.87179460, 4129.10256383, 4117.05128178, 4111.02564075, 4117.30769203, 3856.66666584, 4138.71794851, 4138.20512800, 4120.38461511, 4110.51282024, 4125.38461511, 4130.64102537, 4127.56410229,0
4127.56410229, 4115.38461511, 4131.15384588, 4122.43589716, 4121.28205101, 4131.15384588, 3871.28205045, 4136.53846133, 4137.30769210, 4128.07692280, 4113.97435870, 4131.53846126, 4129.99999973, 4116.53846126,0
4125.38461511, 4093.84615350, 4111.79487152, 4106.53846126, 4109.99999973, 4108.20512793, 3854.10256327, 4110.25640998, 4110.89743562, 4098.20512786, 4106.41025614, 4109.99999973, 4106.53846126, 4121.28205101,0
4119.99999973, 4086.92307658, 4109.61538434, 4107.82051255, 4105.51282024, 4104.35897408, 3848.97435814, 4105.64102537, 4104.87179460, 4091.41025607, 4103.71794844, 4104.23076896, 4107.05128178, 4119.74358947,0
4118.07692280, 4096.28205094, 4116.53846126, 4112.43589716, 4109.61538434, 4116.15384588, 3858.58974276, 4116.53846126, 4115.12820485, 4099.48717914, 4093.46153812, 4109.87179460, 4111.53846126, 4119.48717921,0
4122.56410229, 4086.15384581, 4105.51282024, 4100.12820478, 4100.51282017, 4098.97435863, 3850.12820430, 4111.15384588, 4112.82051255, 4081.92307658, 4073.97435863, 4097.05128171, 4093.07692273, 4124.61538434,0
4128.58974332, 4065.76923036, 4091.02564068, 4084.61538427, 4079.48717914, 4074.87179453, 3833.46153756, 4098.46153812, 4103.20512793, 4064.10256369, 4068.46153805, 4081.28205094, 4080.12820478, 4133.46153819,0
4115.76923050, 4073.33333299, 4100.25640991, 4091.53846119, 4083.20512786, 4088.33333299, 3846.66666584, 4107.56410229, 4111.28205101, 4083.07692273, 4089.99999966, 4091.02564068, 4099.35897402, 4114.61538434,0
4092.17948684, 4096.53846119, 4122.17948691, 4111.02564075, 4110.89743562, 4111.79487152, 3873.84615309, 4125.64102537, 4127.43589716, 4117.69230742, 4122.56410229, 4118.71794844, 4127.94871767, 4094.23076889,0
4169.10256397, 4062.56410215, 4098.97435863, 4074.35897402, 4080.51282017, 4076.41025607, 3846.66666584, 4109.61538434, 4103.33333306, 4084.87179453, 4089.35897402, 4093.20512786, 4097.17948684, 4173.33333320,0
4106.53846126, 4064.10256369, 4082.17948684, 4076.66666632, 4079.99999966, 4084.74358940, 3849.74358891, 4112.05128178, 4109.35897408, 4074.48717914, 4066.15384574, 4078.20512786, 4090.89743555, 4102.17948684,0
3973.33333278, 4131.28205101, 4131.41025614, 4151.15384595, 4149.48717928, 4150.89743569, 3909.74358905, 4145.12820492, 4154.48717928, 4142.56410236, 4126.92307665, 4133.97435870, 4152.43589723, 3998.46153791,0
4160.38461518, 4102.82051255, 4130.76923050, 4125.76923050, 4120.38461511, 4110.64102537, 3882.94871719, 4118.84615357, 4118.84615357, 4118.33333306, 4121.79487152, 4121.92307665, 4128.07692280, 4176.66666653,0
4170.12820499, 4080.76923043, 4096.66666632, 4103.07692280, 4096.28205094, 4087.05128171, 3861.41025558, 4093.97435863, 4100.25640991, 4086.41025607, 4093.33333299, 4090.38461504, 4101.66666632, 4157.82051262,0
4053.07692266, 4116.41025614, 4113.97435870, 4134.48717921, 4127.30769203, 4121.15384588, 3893.33333257, 4112.43589716, 4123.71794844, 4107.05128178, 4109.61538434, 4110.89743562, 4123.46153819, 4069.61538420,0
4160.76923056, 4099.35897402, 4110.64102537, 4109.74358947, 4104.61538434, 4097.30769196, 3882.43589668, 4108.84615357, 4104.48717921, 4083.46153812, 4088.46153812, 4096.92307658, 4094.87179453, 4166.15384595,0
4109.10256383, 4105.12820485, 4101.41025607, 4113.84615357, 4111.15384588, 4107.56410229, 3890.51281975, 4113.97435870, 4116.79487152, 4101.02564068, 4091.15384581, 4095.25640991, 4101.41025607, 4109.35897408,0
4103.07692280, 4107.94871767, 4106.92307665, 4113.71794844, 4111.53846126, 4112.94871767, 3896.28205052, 4117.82051255, 4123.58974332, 4106.66666639, 4102.56410229, 4099.23076889, 4114.10256383, 4118.33333306,0
4160.51282031, 4097.43589709, 4108.84615357, 4099.23076889, 4100.25640991, 4097.69230735, 3891.92307616, 4112.05128178, 4111.53846126, 4090.89743555, 4104.61538434, 4096.15384581, 4108.07692280, 4153.46153826,0
4120.51282024, 4114.87179460, 4120.25640998, 4118.84615357, 4116.41025614, 4113.71794844, 3908.46153777, 4122.30769203, 4124.61538434, 4115.25640998, 4123.20512793, 4118.46153819, 4123.58974332, 4118.97435870,0
4168.46153833, 4099.48717914, 4111.92307665, 4107.82051255, 4098.07692273, 4101.28205094, 3896.92307616, 4119.10256383, 4115.12820485, 4098.46153812, 4103.97435870, 4109.74358947, 4110.38461511, 4167.30769210,0
4163.07692287, 4089.48717914, 4108.71794844, 4101.41025607, 4095.64102530, 4096.41025607, 3893.46153770, 4118.71794844, 4110.89743562, 4088.20512786, 4093.97435863, 4096.41025607, 4105.64102537, 4154.35897415,0
4168.71794858, 4096.02564068, 4122.43589716, 4108.20512793, 4109.61538434, 4101.53846119, 3902.94871719, 4127.30769203, 4119.35897408, 4101.41025607, 4104.74358947, 4106.41025614, 4112.43589716, 4155.89743569,0
4203.71794865, 4095.51282017, 4122.56410229, 4107.30769203, 4103.33333306, 4097.69230735, 3900.38461462, 4120.38461511, 4115.25640998, 4097.30769196, 4103.07692280, 4113.84615357, 4108.84615357, 4169.35897422,0
4173.84615371, 4087.56410222, 4106.15384588, 4094.99999966, 4086.92307658, 4091.28205094, 3893.07692232, 4102.05128171, 4101.15384581, 4080.25640991, 4092.69230735, 4099.87179453, 4099.35897402, 4149.61538441,0
4190.38461525, 4073.71794837, 4087.43589709, 4073.97435863, 4074.23076889, 4078.33333299, 3890.89743514, 4100.38461504, 4093.97435863, 4061.15384574, 4072.43589709, 4072.69230735, 4079.87179453, 4175.12820499,0
4189.87179474, 4090.12820478, 4101.92307658, 4095.76923043, 4098.97435863, 4099.35897402, 3919.99999931, 4122.17948691, 4116.92307665, 4082.94871761, 4078.58974325, 4087.17948684, 4095.51282017, 4157.30769210,0
4192.30769217, 4093.46153812, 4112.30769203, 4106.28205101, 4100.76923043, 4104.10256383, 3927.43589674, 4115.76923050, 4113.71794844, 4087.82051248, 4090.38461504, 4101.92307658, 4107.43589716, 4154.87179467,0
4197.82051269, 4075.64102530, 4096.15384581, 4083.46153812, 4072.43589709, 4078.46153812, 3908.07692239, 4098.71794837, 4092.05128171, 4063.97435856, 4088.84615350, 4089.99999966, 4091.92307658, 4166.92307672,0
4175.64102551, 4072.69230735, 4096.79487145, 4081.28205094, 4071.15384581, 4074.10256376, 3907.17948649, 4105.51282024, 4097.94871761, 4069.10256369, 4092.17948684, 4092.43589709, 4094.48717914, 4152.05128185,0
4193.71794858, 4061.92307651, 4093.33333299, 4072.30769196, 4060.89743548, 4064.35897395, 3897.05128129, 4097.43589709, 4089.87179453, 4059.35897395, 4078.71794837, 4079.87179453, 4085.38461504, 4165.25641005,0
4178.84615371, 4070.25640991, 4089.61538427, 4071.79487145, 4061.66666625, 4064.99999959, 3897.43589668, 4098.71794837, 4092.17948684, 4059.48717907, 4080.12820478, 4073.33333299, 4083.46153812, 4150.12820492,0
4168.20512807, 4088.20512786, 4105.38461511, 4089.99999966, 4081.92307658, 4080.51282017, 3914.48717880, 4123.71794844, 4113.84615357, 4088.71794837, 4101.53846119, 4097.69230735, 4107.69230742, 4142.05128185,0
4183.20512807, 4081.79487145, 4106.92307665, 4091.92307658, 4078.20512786, 4081.41025607, 3914.61538392, 4121.15384588, 4109.74358947, 4090.76923043, 4103.33333306, 4106.02564075, 4114.74358947, 4150.25641005,0
4157.43589723, 4080.51282017, 4097.43589709, 4089.35897402, 4076.28205094, 4081.79487145, 3913.33333264, 4106.41025614, 4100.76923043, 4079.61538427, 4096.15384581, 4093.71794837, 4105.25640998, 4132.05128178,0
4158.20512800, 4081.79487145, 4096.28205094, 4085.38461504, 4083.46153812, 4077.30769196, 3913.20512751, 4107.05128178, 4102.69230742, 4077.17948684, 4085.25640991, 4083.20512786, 4092.56410222, 4138.20512800,0
4159.48717928, 4081.79487145, 4099.23076889, 4082.43589709, 4083.58974325, 4073.97435863, 3917.17948649, 4109.10256383, 4106.02564075, 4084.23076889, 4083.33333299, 4086.92307658, 4089.61538427, 4134.61538434,0
4143.20512800, 4085.64102530, 4097.05128171, 4085.25640991, 4079.87179453, 4078.20512786, 3924.23076854, 4102.43589709, 4102.30769196, 4085.89743555, 4091.02564068, 4089.87179453, 4091.79487145, 4125.25640998,0
4147.05128185, 4082.82051248, 4089.35897402, 4086.02564068, 4079.10256376, 4078.71794837, 3926.41025572, 4097.94871761, 4099.61538427, 4077.56410222, 4092.05128171, 4082.05128171, 4090.89743555, 4132.94871767,0
4136.66666646, 4079.35897402, 4090.12820478, 4088.84615350, 4081.02564068, 4081.66666632, 3931.15384546, 4108.07692280, 4111.53846126, 4084.48717914, 4101.41025607, 4084.48717914, 4102.56410229, 4124.10256383,0
4138.84615364, 4072.30769196, 4092.17948684, 4080.64102530, 4072.69230735, 4075.76923043, 3928.33333264, 4106.53846126, 4109.23076896, 4086.02564068, 4102.05128171, 4086.02564068, 4104.48717921, 4130.89743562,0
4137.43589723, 4067.05128164, 4086.02564068, 4074.99999966, 4068.97435856, 4067.30769189, 3920.38461469, 4086.92307658, 4093.33333299, 4075.76923043, 4090.51282017, 4080.64102530, 4092.30769196, 4129.61538434,0
4133.33333306, 4067.05128164, 4083.33333299, 4080.64102530, 4073.20512786, 4071.28205094, 3924.48717880, 4084.10256376, 4091.02564068, 4073.20512786, 4087.94871761, 4079.87179453, 4089.23076889, 4125.12820485,0
4145.38461518, 4065.12820472, 4077.56410222, 4069.87179453, 4071.28205094, 4072.94871761, 3934.87179418, 4102.30769196, 4098.07692273, 4071.28205094, 4082.82051248, 4073.20512786, 4088.07692273, 4136.53846133,0
4131.15384588, 4068.07692266, 4074.87179453, 4061.92307651, 4068.97435856, 4071.41025607, 3939.99999938, 4109.87179460, 4101.53846119, 4073.07692273, 4079.87179453, 4069.10256369, 4086.53846119, 4127.56410229,0
4142.43589723, 4075.12820478, 4087.43589709, 4075.76923043, 4065.89743548, 4073.33333299, 3939.87179425, 4098.97435863, 4099.35897402, 4078.84615350, 4087.05128171, 4078.97435863, 4087.56410222, 4134.35897408,0
4149.10256390, 4079.74358940, 4095.89743555, 4089.99999966, 4076.15384581, 4078.84615350, 3941.92307630, 4093.20512786, 4097.56410222, 4082.43589709, 4093.46153812, 4087.05128171, 4090.51282017, 4132.43589716,0
4132.43589716, 4081.28205094, 4089.99999966, 4085.64102530, 4094.61538427, 4083.07692273, 3945.89743528, 4099.74358940, 4098.33333299, 4082.94871761, 4092.30769196, 4087.43589709, 4093.58974325, 4125.12820485,0
4157.82051262, 4086.28205094, 4091.53846119, 4082.82051248, 4096.92307658, 4089.74358940, 3956.28205066, 4105.12820485, 4102.43589709, 4084.35897402, 4092.82051248, 4091.66666632, 4099.87179453, 4145.89743569,0
4162.82051262, 4106.02564075, 4111.53846126, 4106.92307665, 4104.48717921, 4107.82051255, 3978.20512765, 4109.10256383, 4112.30769203, 4096.53846119, 4112.17948691, 4112.05128178, 4117.05128178, 4134.48717921,0
4163.71794851, 4108.97435870, 4118.07692280, 4109.35897408, 4106.28205101, 4107.56410229, 3979.87179432, 4108.71794844, 4109.35897408, 4094.99999966, 4112.94871767, 4119.87179460, 4115.89743562, 4133.33333306,0
4179.10256397, 4093.71794837, 4103.97435870, 4086.79487145, 4092.17948684, 4093.33333299, 3967.69230707, 4109.74358947, 4101.53846119, 4080.76923043, 4093.84615350, 4104.74358947, 4100.51282017, 4149.99999980,0
4163.84615364, 4104.23076896, 4106.53846126, 4095.89743555, 4093.33333299, 4098.97435863, 3976.66666611, 4115.12820485, 4110.89743562, 4085.12820478, 4099.74358940, 4104.48717921, 4104.48717921, 4138.07692287,0
4165.38461518, 4107.17948691, 4110.12820485, 4102.69230742, 4088.46153812, 4092.69230735, 3974.99999945, 4107.43589716, 4106.02564075, 4077.82051248, 4096.66666632, 4099.87179453, 4100.64102530, 4143.71794851,0
4164.23076903, 4091.41025607, 4101.02564068, 4087.43589709, 4081.28205094, 4078.20512786, 3962.94871733, 4098.58974325, 4092.43589709, 4063.71794830, 4081.53846119, 4086.66666632, 4091.92307658, 4142.30769210,0
4146.79487159, 4089.87179453, 4097.94871761, 4080.12820478, 4086.41025607, 4078.33333299, 3964.10256348, 4098.46153812, 4094.10256376, 4065.51282010, 4085.76923043, 4089.35897402, 4091.28205094, 4128.97435870,0
4139.74358954, 4094.87179453, 4098.58974325, 4078.33333299, 4084.48717914, 4077.30769196, 3966.02564040, 4099.61538427, 4099.10256376, 4067.56410215, 4087.82051248, 4093.20512786, 4087.56410222, 4121.02564075,0
4130.76923050, 4106.66666639, 4108.58974332, 4086.66666632, 4090.51282017, 4087.82051248, 3981.15384560, 4113.46153819, 4111.66666639, 4081.28205094, 4092.82051248, 4104.74358947, 4100.64102530, 4104.99999973,0
4134.35897408, 4120.51282024, 4126.41025614, 4104.87179460, 4106.02564075, 4106.92307665, 4002.30769176, 4126.41025614, 4121.28205101, 4097.43589709, 4113.46153819, 4123.97435870, 4119.23076896, 4111.02564075,0
4121.79487152, 4121.79487152, 4127.05128178, 4107.17948691, 4108.46153819, 4105.76923050, 4000.76923022, 4117.30769203, 4114.48717921, 4096.66666632, 4121.02564075, 4126.41025614, 4121.66666639, 4109.87179460,0
4107.56410229, 4107.82051255, 4111.28205101, 4091.66666632, 4095.76923043, 4088.07692273, 3988.33333278, 4102.56410229, 4104.35897408, 4087.82051248, 4107.30769203, 4112.30769203, 4114.74358947, 4103.97435870,0
4115.38461511, 4106.66666639, 4108.71794844, 4093.84615350, 4096.28205094, 4089.35897402, 3992.30769176, 4108.71794844, 4109.48717921, 4091.53846119, 4105.64102537, 4107.94871767, 4113.20512793, 4110.64102537,0
4098.46153812, 4108.20512793, 4105.89743562, 4100.38461504, 4100.76923043, 4094.35897402, 3986.79487124, 4110.12820485, 4109.35897408, 4090.38461504, 4103.46153819, 4103.97435870, 4102.56410229, 4102.94871767,0
4089.87179453, 4075.25640991, 4079.10256376, 4074.99999966, 4078.07692273, 4068.97435856, 3959.10256348, 4085.12820478, 4084.74358940, 4059.61538420, 4075.38461504, 4076.28205094, 4073.71794837, 4110.12820485,0
4097.82051248, 4066.66666625, 4078.20512786, 4073.46153812, 4074.35897402, 4069.99999966, 3969.35897374, 4084.23076889, 4087.82051248, 4061.92307651, 4072.17948684, 4075.76923043, 4080.76923043, 4111.41025614,0
4101.53846119, 4107.94871767, 4117.69230742, 4115.38461511, 4107.56410229, 4110.25640998, 4013.20512772, 4119.10256383, 4125.12820485, 4110.25640998, 4108.07692280, 4116.79487152, 4125.89743562, 4101.41025607,0
4115.38461511, 4126.66666639, 4135.64102544, 4132.30769203, 4123.58974332, 4125.12820485, 4025.64102516, 4132.94871767, 4136.02564082, 4128.07692280, 4128.58974332, 4135.89743569, 4141.66666646, 4109.23076896,0
4108.33333306, 4115.38461511, 4127.94871767, 4126.53846126, 4120.38461511, 4119.87179460, 4017.69230721, 4128.58974332, 4128.71794844, 4121.66666639, 4127.43589716, 4126.66666639, 4133.20512793, 4105.51282024,0
4104.61538434, 4118.33333306, 4129.48717921, 4134.23076896, 4124.23076896, 4124.35897408, 4025.64102516, 4135.89743569, 4135.76923056, 4131.28205101, 4127.56410229, 4126.15384588, 4138.07692287, 4103.20512793,0
4113.33333306, 4125.89743562, 4132.17948691, 4140.38461518, 4126.53846126, 4123.97435870, 4033.97435849, 4134.35897408, 4135.51282031, 4133.07692280, 4127.94871767, 4125.76923050, 4139.10256390, 4106.92307665,0
4098.71794837, 4116.41025614, 4124.74358947, 4131.28205101, 4118.07692280, 4113.58974332, 4024.48717900, 4118.46153819, 4120.38461511, 4112.69230742, 4119.87179460, 4112.43589716, 4122.30769203, 4100.25640991,0
4089.23076889, 4099.61538427, 4116.28205101, 4121.28205101, 4106.92307665, 4103.58974332, 4007.82051234, 4111.28205101, 4111.15384588, 4100.12820478, 4110.89743562, 4103.46153819, 4111.41025614, 4103.84615357,0
4088.20512786, 4092.69230735, 4109.61538434, 4122.94871767, 4104.61538434, 4102.94871767, 4007.56410208, 4111.92307665, 4112.05128178, 4105.51282024, 4110.64102537, 4105.38461511, 4118.20512793, 4105.38461511,0
4089.35897402, 4096.66666632, 4104.99999973, 4128.33333306, 4110.25640998, 4107.43589716, 4018.33333285, 4112.82051255, 4113.07692280, 4105.38461511, 4110.51282024, 4103.07692280, 4121.41025614, 4103.84615357,0
4091.66666632, 4099.87179453, 4105.64102537, 4128.84615357, 4113.07692280, 4108.33333306, 4021.66666618, 4115.38461511, 4113.33333306, 4101.15384581, 4107.30769203, 4099.48717914, 4114.61538434, 4105.25640998,0
4088.84615350, 4101.79487145, 4115.38461511, 4134.35897408, 4112.56410229, 4109.48717921, 4021.15384567, 4116.53846126, 4117.43589716, 4110.38461511, 4114.99999973, 4109.87179460, 4121.28205101, 4103.33333306,0
4098.97435863, 4106.79487152, 4129.23076896, 4147.43589723, 4112.82051255, 4109.48717921, 4018.58974311, 4111.66666639, 4120.12820485, 4116.53846126, 4128.84615357, 4125.76923050, 4135.51282031, 4105.76923050,0
4100.89743555, 4114.99999973, 4136.92307672, 4155.76923056, 4118.33333306, 4113.33333306, 4020.12820465, 4109.23076896, 4121.02564075, 4111.92307665, 4135.64102544, 4131.15384588, 4138.20512800, 4104.23076896,0
4096.92307658, 4122.43589716, 4138.20512800, 4156.15384595, 4124.61538434, 4118.71794844, 4029.99999952, 4114.48717921, 4121.15384588, 4112.17948691, 4133.46153819, 4126.41025614, 4134.87179460, 4105.38461511,0
4100.89743555, 4128.71794844, 4138.71794851, 4160.51282031, 4126.66666639, 4120.64102537, 4040.25640984, 4123.97435870, 4125.64102537, 4119.99999973, 4130.12820485, 4123.46153819, 4135.51282031, 4109.99999973,0
4089.23076889, 4127.82051255, 4133.46153819, 4164.10256390, 4123.20512793, 4121.28205101, 4043.46153805, 4128.33333306, 4129.35897408, 4120.25640998, 4126.79487152, 4118.84615357, 4129.99999973, 4103.07692280,0
4084.99999966, 4113.58974332, 4123.46153819, 4154.10256390, 4114.10256383, 4112.05128178, 4034.61538413, 4118.58974332, 4118.33333306, 4108.07692280, 4113.46153819, 4107.43589716, 4116.53846126, 4101.53846119,0
4093.58974325, 4110.25640998, 4127.30769203, 4152.94871774, 4116.66666639, 4108.71794844, 4032.05128157, 4111.28205101, 4110.76923050, 4105.76923050, 4110.51282024, 4110.76923050, 4122.05128178, 4108.46153819,0
4092.94871761, 4120.38461511, 4138.07692287, 4164.35897415, 4125.89743562, 4119.10256383, 4043.46153805, 4115.25640998, 4116.15384588, 4112.69230742, 4124.99999973, 4123.46153819, 4136.02564082, 4109.48717921,0
4092.94871761, 4116.28205101, 4131.15384588, 4159.48717928, 4120.38461511, 4119.87179460, 4045.12820472, 4114.10256383, 4116.02564075, 4105.25640998, 4122.17948691, 4116.79487152, 4129.48717921, 4109.48717921,0
4090.12820478, 4105.12820485, 4118.07692280, 4147.30769210, 4110.51282024, 4108.20512793, 4034.61538413, 4110.38461511, 4112.17948691, 4098.20512786, 4105.89743562, 4103.33333306, 4118.97435870, 4110.64102537,0
4084.99999966, 4098.20512786, 4109.48717921, 4140.76923056, 4101.92307658, 4096.66666632, 4026.79487131, 4105.64102537, 4107.56410229, 4097.94871761, 4097.56410222, 4095.25640991, 4112.30769203, 4113.58974332,0
4081.53846119, 4091.28205094, 4102.30769196, 4133.33333306, 4093.46153812, 4088.20512786, 4019.99999952, 4094.35897402, 4097.30769196, 4087.94871761, 4091.41025607, 4086.28205094, 4100.76923043, 4114.23076896,0
4081.15384581, 4085.51282017, 4100.89743555, 4125.38461511, 4089.10256376, 4079.99999966, 4009.48717900, 4086.02564068, 4090.51282017, 4076.92307658, 4084.23076889, 4085.12820478, 4092.82051248, 4112.43589716,0
4079.99999966, 4079.35897402, 4099.48717914, 4118.07692280, 4084.74358940, 4074.48717914, 4007.69230721, 4085.25640991, 4093.33333299, 4074.99999966, 4081.53846119, 4086.28205094, 4091.66666632, 4113.33333306,0
4067.69230728, 4073.84615350, 4092.82051248, 4113.71794844, 4080.89743555, 4073.20512786, 4017.30769183, 4084.74358940, 4093.71794837, 4077.56410222, 4081.15384581, 4077.82051248, 4089.61538427, 4110.76923050,0
4066.79487138, 4067.17948677, 4085.51282017, 4105.89743562, 4075.64102530, 4069.35897395, 4019.23076875, 4082.30769196, 4086.02564068, 4071.02564068, 4073.46153812, 4066.15384574, 4081.53846119, 4111.92307665,0
4071.28205094, 4063.07692266, 4082.94871761, 4097.17948684, 4069.74358940, 4067.82051241, 4015.38461490, 4084.23076889, 4084.61538427, 4061.15384574, 4068.33333292, 4064.87179446, 4073.97435863, 4112.30769203,0
4070.89743555, 4070.38461504, 4092.30769196, 4101.28205094, 4073.71794837, 4074.87179453, 4018.33333285, 4089.10256376, 4093.07692273, 4065.51282010, 4079.35897402, 4077.69230735, 4076.28205094, 4110.25640998,0
4082.30769196, 4083.97435863, 4104.99999973, 4113.33333306, 4085.38461504, 4081.53846119, 4023.58974311, 4095.64102530, 4099.87179453, 4079.74358940, 4091.53846119, 4089.48717914, 4090.25640991, 4116.15384588,0
4080.64102530, 4086.15384581, 4104.61538434, 4116.79487152, 4089.61538427, 4083.46153812, 4025.76923029, 4099.48717914, 4103.07692280, 4090.38461504, 4095.76923043, 4092.30769196, 4100.38461504, 4112.43589716,0
4074.99999966, 4085.12820478, 4101.66666632, 4113.71794844, 4086.28205094, 4083.20512786, 4028.33333285, 4097.05128171, 4101.02564068, 4087.43589709, 4094.35897402, 4092.43589709, 4098.20512786, 4110.89743562,0
4083.58974325, 4096.79487145, 4107.94871767, 4117.82051255, 4091.41025607, 4085.25640991, 4036.15384567, 4095.51282017, 4097.56410222, 4076.79487145, 4090.51282017, 4097.30769196, 4105.89743562, 4117.30769203,0
4078.71794837, 4091.79487145, 4103.07692280, 4115.38461511, 4095.38461504, 4086.02564068, 4038.33333292, 4092.69230735, 4096.02564068, 4076.28205094, 4087.05128171, 4093.46153812, 4106.92307665, 4113.46153819,0
4072.30769196, 4070.76923043, 4088.46153812, 4103.20512793, 4080.38461504, 4082.17948684, 4031.28205080, 4085.89743555, 4088.84615350, 4076.28205094, 4085.76923043, 4077.69230735, 4073.71794837, 4111.79487152,0
4075.76923043, 4079.48717914, 4089.10256376, 4107.43589716, 4076.79487145, 4081.15384581, 4030.12820465, 4084.48717914, 4085.89743555, 4071.28205094, 4085.51282017, 4074.48717914, 4063.33333292, 4110.64102537,0
4074.87179453, 4101.41025607, 4099.35897402, 4121.92307665, 4105.38461511, 4082.05128171, 4027.17948670, 4082.30769196, 4089.35897402, 4080.25640991, 4089.10256376, 4085.12820478, 4097.30769196, 4111.53846126,0
4079.87179453, 4109.48717921, 4112.05128178, 4136.15384595, 4115.76923050, 4084.48717914, 4025.89743541, 4082.05128171, 4090.64102530, 4080.38461504, 4104.10256383, 4100.25640991, 4110.76923050, 4113.97435870,0
4091.53846119, 4120.64102537, 4129.35897408, 4155.38461518, 4097.05128171, 4091.53846119, 4050.76923036, 4095.89743555, 4098.97435863, 4079.35897402, 4125.51282024, 4116.92307665, 4101.41025607, 4109.23076896,0
4093.58974325, 4124.99999973, 4136.15384595, 4159.74358954, 4101.66666632, 4098.84615350, 4069.61538420, 4105.12820485, 4109.87179460, 4100.12820478, 4132.17948691, 4123.46153819, 4118.07692280, 4112.05128178,0
4079.61538427, 4110.25640998, 4124.87179460, 4143.46153826, 4119.61538434, 4096.15384581, 4049.48717907, 4099.61538427, 4107.43589716, 4093.97435863, 4112.82051255, 4112.43589716, 4124.61538434, 4110.25640998,0
4078.46153812, 4110.51282024, 4120.12820485, 4138.46153826, 4104.74358947, 4092.56410222, 4041.79487138, 4101.79487145, 4098.33333299, 4074.48717914, 4096.92307658, 4106.79487152, 4098.71794837, 4106.66666639,0
4088.97435863, 4118.58974332, 4129.23076896, 4148.20512800, 4085.12820478, 4099.23076889, 4066.53846113, 4113.71794844, 4102.43589709, 4094.99999966, 4107.56410229, 4116.15384588, 4086.02564068, 4111.02564075,0
4081.15384581, 4102.05128171, 4126.41025614, 4145.51282031, 4104.10256383, 4102.30769196, 4063.84615343, 4114.23076896, 4107.94871767, 4098.46153812, 4110.38461511, 4110.25640998, 4098.58974325, 4110.12820485,0
4077.05128171, 4089.61538427, 4113.71794844, 4137.17948697, 4133.71794844, 4090.51282017, 4042.56410215, 4102.30769196, 4106.66666639, 4072.82051248, 4096.92307658, 4096.79487145, 4117.43589716, 4114.23076896,0
4084.48717914, 4100.89743555, 4113.58974332, 4134.87179460, 4149.61538441, 4085.64102530, 4050.76923036, 4099.87179453, 4109.61538434, 4097.56410222, 4103.46153819, 4103.97435870, 4124.99999973, 4116.92307665,0
4087.69230735, 4113.20512793, 4124.35897408, 4128.97435870, 4142.82051262, 4107.05128178, 4069.61538420, 4114.48717921, 4108.33333306, 4117.94871767, 4122.82051255, 4118.07692280, 4119.61538434, 4115.12820485,0
4086.79487145, 4099.99999966, 4117.69230742, 4113.58974332, 4118.46153819, 4105.12820485, 4066.41025600, 4113.84615357, 4100.76923043, 4062.05128164, 4118.33333306, 4103.71794844, 4108.33333306, 4121.66666639,0
4083.33333299, 4077.82051248, 4107.17948691, 4107.05128178, 4124.61538434, 4082.43589709, 4061.15384574, 4096.53846119, 4104.87179460, 4028.07692259, 4111.15384588, 4091.02564068, 4109.87179460, 4121.79487152,0
4090.89743555, 4090.64102530, 4125.64102537, 4124.35897408, 4151.53846133, 4099.61538427, 4073.33333299, 4098.71794837, 4116.53846126, 4054.10256369, 4129.99999973, 4115.64102537, 4129.48717921, 4118.58974332,0
4103.84615357, 4115.51282024, 4140.51282031, 4136.66666646, 4149.10256390, 4119.74358947, 4079.99999966, 4106.28205101, 4104.99999973, 4069.35897395, 4144.10256390, 4128.33333306, 4138.84615364, 4125.25640998,0
4101.02564068, 4110.64102537, 4135.38461518, 4132.69230742, 4136.41025621, 4106.28205101, 4078.71794837, 4110.76923050, 4101.02564068, 4068.97435856, 4138.46153826, 4119.99999973, 4140.64102544, 4127.94871767,0
4094.35897402, 4087.94871761, 4133.07692280, 4123.97435870, 4125.76923050, 4102.94871767, 4079.35897402, 4123.20512793, 4116.79487152, 4075.89743555, 4133.97435870, 4122.56410229, 4153.58974339, 4124.74358947,0
4102.05128171, 4088.07692273, 4138.71794851, 4124.87179460, 4118.97435870, 4120.89743562, 4082.94871761, 4124.61538434, 4117.82051255, 4085.12820478, 4143.33333313, 4130.38461511, 4172.69230756, 4124.23076896,0
4108.46153819, 4117.69230742, 4146.41025621, 4139.99999980, 4144.99999980, 4126.28205101, 4092.05128171, 4124.74358947, 4122.43589716, 4089.61538427, 4156.66666646, 4137.94871774, 4178.84615371, 4126.15384588,0
4098.46153812, 4116.15384588, 4138.46153826, 4135.89743569, 4158.33333313, 4111.66666639, 4085.76923043, 4123.07692280, 4117.56410229, 4071.02564068, 4141.02564082, 4131.66666639, 4160.51282031, 4123.07692280,0
4098.58974325, 4102.94871767, 4137.69230749, 4141.41025621, 4153.46153826, 4126.15384588, 4084.74358940, 4112.17948691, 4105.25640998, 4055.64102523, 4135.25640998, 4127.43589716, 4160.12820492, 4119.23076896,0
4129.61538434, 4164.10256390, 4192.05128192, 4209.48717942, 4166.15384595, 4190.76923063, 4159.35897415, 4154.48717928, 4153.33333313, 4084.74358940, 4196.79487166, 4178.97435884, 4235.12820513, 4122.05128178,0
4149.99999980, 4219.10256404, 4237.30769231, 4253.07692308, 4184.35897422, 4216.28205122, 4220.89743583, 4203.71794865, 4202.82051275, 4106.79487152, 4248.58974359, 4232.17948711, 4303.71794886, 4122.94871767,0
4134.48717921, 4186.92307679, 4213.20512814, 4216.92307686, 4205.76923070, 4192.30769217, 4177.43589730, 4167.30769210, 4171.53846140, 4100.12820478, 4235.64102564, 4213.46153840, 4285.64102571, 4120.76923050,0
4123.84615357, 4173.33333320, 4200.38461525, 4206.92307686, 4226.92307686, 4206.15384609, 4147.82051262, 4151.28205108, 4156.41025621, 4091.66666632, 4229.35897429, 4197.94871781, 4273.20512828, 4122.05128178,0
4139.74358954, 4216.02564096, 4228.71794865, 4248.58974359, 4224.10256404, 4228.20512814, 4191.02564089, 4198.33333320, 4195.76923063, 4097.17948684, 4250.51282052, 4230.25641019, 4310.12820527, 4126.02564075,0
4149.61538441, 4225.25641019, 4239.10256411, 4262.43589744, 4226.15384609, 4218.84615378, 4214.99999993, 4199.61538448, 4203.33333327, 4136.79487159, 4262.94871795, 4250.12820513, 4328.58974373, 4126.02564075,0
4142.69230749, 4205.25641019, 4235.51282052, 4251.66666667, 4252.56410257, 4218.97435891, 4199.23076910, 4175.64102551, 4189.10256397, 4174.23076910, 4269.74358982, 4247.05128206, 4325.64102578, 4122.82051255,0
4147.30769210, 4224.48717942, 4254.10256411, 4259.74358975, 4246.66666667, 4237.94871795, 4210.76923070, 4202.69230763, 4208.97435891, 4178.84615371, 4279.35897443, 4258.33333334, 4344.48717970, 4120.12820485,0
4161.66666646, 4258.84615385, 4280.64102571, 4286.66666674, 4233.58974352, 4247.56410257, 4245.51282052, 4232.69230763, 4235.51282052, 4199.10256397, 4287.82051289, 4281.66666674, 4362.17948739, 4120.51282024,0
4159.35897415, 4253.97435898, 4278.33333341, 4299.48717963, 4260.25641026, 4247.17948718, 4239.74358975, 4224.10256404, 4227.17948711, 4220.76923070, 4286.15384623, 4281.92307700, 4347.94871816, 4121.79487152,0
4149.99999980, 4249.23076923, 4271.41025648, 4305.25641040, 4297.17948725, 4261.15384616, 4219.87179481, 4215.25641019, 4224.61538455, 4219.35897429, 4287.69230777, 4277.30769238, 4344.23076944, 4115.76923050,0
4164.48717928, 4280.25641033, 4288.58974366, 4321.41025655, 4302.05128219, 4291.41025648, 4239.10256411, 4217.30769224, 4240.89743590, 4256.66666667, 4304.74358989, 4294.10256418, 4365.38461567, 4120.12820485,0
4181.53846140, 4298.07692315, 4310.00000014, 4338.71794893, 4294.87179495, 4307.17948732, 4276.02564110, 4227.17948711, 4245.51282052, 4326.92307707, 4322.43589758, 4312.43589758, 4385.64102592, 4126.66666639,0
4179.74358961, 4300.38461553, 4327.30769245, 4362.05128226, 4331.02564117, 4315.12820527, 4296.79487187, 4246.02564103, 4252.56410257, 4357.69230790, 4338.71794893, 4329.35897450, 4402.56410292, 4119.74358947,0
4182.94871781, 4308.97435912, 4331.02564117, 4363.97435919, 4338.71794893, 4318.71794886, 4297.94871802, 4247.69230770, 4258.46153847, 4336.53846175, 4336.28205149, 4336.92307714, 4405.00000035, 4122.94871767,0
4178.71794858, 4300.12820527, 4305.89743604, 4327.94871809, 4298.58974366, 4297.05128212, 4273.97435905, 4227.05128199, 4233.97435898, 4302.69230784, 4304.74358989, 4310.12820527, 4381.66666695, 4127.30769203,0
4154.74358954, 4253.46153847, 4261.41025641, 4287.30769238, 4268.97435905, 4258.58974359, 4229.74358968, 4198.07692294, 4195.25641012, 4273.46153853, 4269.10256418, 4262.56410257, 4335.89743611, 4123.97435870,0
4144.61538441, 4210.38461532, 4231.92307686, 4262.94871795, 4246.41025641, 4227.05128199, 4205.51282045, 4175.89743576, 4186.41025628, 4237.17948718, 4248.58974359, 4235.89743590, 4304.74358989, 4125.64102537,0
4147.30769210, 4216.02564096, 4233.46153840, 4261.02564103, 4243.20512821, 4225.25641019, 4208.20512814, 4173.07692294, 4193.07692294, 4230.64102558, 4253.20512821, 4239.48717949, 4319.87179501, 4123.97435870,0
4145.38461518, 4223.58974352, 4234.10256411, 4260.51282052, 4234.23076923, 4227.82051275, 4206.02564096, 4180.64102551, 4199.74358961, 4232.17948711, 4261.15384616, 4236.79487180, 4325.64102578, 4125.51282024,0
4138.46153826, 4193.46153833, 4209.74358968, 4235.64102564, 4205.89743583, 4195.89743576, 4185.38461525, 4175.38461525, 4204.23076917, 4200.38461525, 4243.97435898, 4210.89743583, 4289.23076930, 4128.33333306,0
4115.76923050, 4150.38461518, 4165.12820492, 4183.58974345, 4174.48717935, 4144.48717928, 4140.25641005, 4137.30769210, 4168.84615371, 4172.94871781, 4200.25641012, 4167.30769210, 4243.20512821, 4123.20512793,0
4091.28205094, 4121.53846126, 4128.71794844, 4142.94871774, 4133.07692280, 4121.02564075, 4104.61538434, 4099.74358940, 4122.05128178, 4163.97435877, 4161.15384595, 4132.56410229, 4215.76923070, 4122.69230742,0
4087.94871761, 4103.71794844, 4115.64102537, 4134.10256383, 4109.10256383, 4115.38461511, 4102.17948684, 4093.33333299, 4113.84615357, 4140.38461518, 4142.05128185, 4121.53846126, 4198.33333320, 4122.82051255,0
4084.99999966, 4072.94871761, 4084.10256376, 4099.99999966, 4087.17948684, 4072.05128171, 4082.56410222, 4077.82051248, 4100.25640991, 4075.89743555, 4105.76923050, 4080.51282017, 4151.79487159, 4124.87179460,0
4069.23076882, 4048.71794830, 4045.38461497, 4058.97435856, 4044.35897395, 4034.35897388, 4055.51282010, 4056.41025600, 4072.17948684, 4037.56410215, 4065.12820472, 4032.56410208, 4116.53846126, 4126.02564075,0
4077.82051248, 4064.10256369, 4057.43589702, 4074.35897402, 4030.89743541, 4048.58974318, 4069.87179453, 4066.66666625, 4084.87179453, 4068.07692266, 4067.30769189, 4049.87179446, 4137.30769210, 4126.02564075,0
4102.43589709, 4085.38461504, 4088.20512786, 4104.87179460, 4048.71794830, 4076.28205094, 4088.33333299, 4087.94871761, 4105.12820485, 4079.99999966, 4093.20512786, 4082.17948684, 4147.30769210, 4133.46153819,0
4092.43589709, 4074.99999966, 4085.12820478, 4106.28205101, 4064.48717907, 4081.66666632, 4073.71794837, 4087.30769196, 4104.10256383, 4066.41025600, 4104.35897408, 4076.79487145, 4134.74358947, 4127.30769203,0
4078.46153812, 4061.92307651, 4070.25640991, 4097.05128171, 4079.48717914, 4059.35897395, 4054.10256369, 4072.30769196, 4109.10256383, 4086.66666632, 4096.15384581, 4067.94871754, 4155.76923056, 4120.25640998,0
4086.92307658, 4063.20512779, 4070.25640991, 4096.92307658, 4089.35897402, 4032.94871747, 4048.58974318, 4062.30769189, 4107.82051255, 4116.15384588, 4090.89743555, 4071.79487145, 4167.82051262, 4125.25640998,0
4092.17948684, 4071.28205094, 4084.35897402, 4105.38461511, 4068.97435856, 4048.97435856, 4065.64102523, 4073.58974325, 4111.15384588, 4124.61538434, 4113.46153819, 4084.35897402, 4157.05128185, 4123.33333306,0
4098.20512786, 4091.66666632, 4099.35897402, 4116.15384588, 4054.10256369, 4092.56410222, 4093.46153812, 4098.84615350, 4124.99999973, 4129.87179460, 4137.05128185, 4099.61538427, 4174.87179474, 4122.56410229,0
4096.92307658, 4105.64102537, 4098.20512786, 4120.38461511, 4084.61538427, 4097.30769196, 4102.30769196, 4105.64102537, 4126.53846126, 4123.07692280, 4127.17948691, 4098.84615350, 4182.94871781, 4123.46153819,0
4085.89743555, 4096.02564068, 4093.71794837, 4118.71794844, 4106.92307665, 4089.23076889, 4102.82051255, 4092.43589709, 4123.58974332, 4121.41025614, 4117.69230742, 4097.43589709, 4168.97435884, 4121.41025614,0
4094.74358940, 4098.97435863, 4105.64102537, 4120.89743562, 4098.71794837, 4107.43589716, 4117.56410229, 4095.51282017, 4134.10256383, 4130.12820485, 4132.69230742, 4112.69230742, 4187.82051269, 4122.05128178,0
4107.69230742, 4129.61538434, 4123.07692280, 4132.17948691, 4106.66666639, 4121.92307665, 4135.51282031, 4112.17948691, 4140.38461518, 4117.30769203, 4151.41025621, 4125.76923050, 4208.84615378, 4118.33333306,0
4108.20512793, 4151.92307672, 4135.12820485, 4144.48717928, 4124.74358947, 4131.02564075, 4141.28205108, 4110.64102537, 4133.71794844, 4123.46153819, 4163.97435877, 4134.99999973, 4200.12820499, 4114.10256383,0
4111.15384588, 4155.12820492, 4143.33333313, 4154.23076903, 4112.69230742, 4137.94871774, 4145.25641005, 4102.05128171, 4132.43589716, 4160.12820492, 4172.56410243, 4148.33333313, 4206.02564096, 4114.61538434,0
4109.74358947, 4151.79487159, 4141.02564082, 4154.61538441, 4101.53846119, 4119.74358947, 4145.76923056, 4108.20512793, 4139.10256390, 4157.17948697, 4169.99999986, 4149.61538441, 4225.89743583, 4116.53846126,0
4101.53846119, 4150.25641005, 4133.58974332, 4146.79487159, 4133.20512793, 4108.58974332, 4131.79487152, 4113.33333306, 4144.87179467, 4128.84615357, 4161.02564082, 4141.02564082, 4220.12820506, 4114.48717921,0
4099.99999966, 4167.05128185, 4140.76923056, 4158.33333313, 4170.25641012, 4133.20512793, 4127.56410229, 4111.79487152, 4146.28205108, 4148.58974339, 4168.46153833, 4148.33333313, 4212.94871788, 4108.97435870,0
4109.87179460, 4186.79487166, 4159.61538441, 4183.46153833, 4174.87179474, 4157.43589723, 4144.87179467, 4117.69230742, 4152.94871774, 4185.89743576, 4193.71794858, 4170.12820499, 4239.48717949, 4110.25640998,0
4111.28205101, 4194.10256397, 4169.35897422, 4196.79487166, 4157.17948697, 4172.43589730, 4170.12820499, 4136.79487159, 4168.20512807, 4185.51282038, 4205.38461532, 4185.76923063, 4265.64102564, 4109.48717921,0
4101.66666632, 4212.43589737, 4164.74358954, 4197.94871781, 4162.56410236, 4178.58974345, 4182.17948704, 4148.58974339, 4174.87179474, 4178.33333320, 4196.02564089, 4180.51282038, 4251.53846154, 4105.64102537,0
4105.12820485, 4233.58974352, 4166.02564082, 4199.23076910, 4182.56410243, 4177.30769217, 4183.33333320, 4147.17948697, 4176.53846140, 4187.94871781, 4199.61538448, 4176.53846140, 4249.10256411, 4108.97435870,0
4118.20512793, 4251.41025641, 4191.28205115, 4217.05128199, 4196.66666653, 4202.05128199, 4202.43589737, 4156.02564082, 4189.23076910, 4208.71794865, 4230.51282045, 4203.97435891, 4294.10256418, 4109.10256383,0
4126.53846126, 4261.15384616, 4211.79487173, 4231.92307686, 4207.56410250, 4219.87179481, 4233.07692301, 4175.12820499, 4198.97435884, 4213.07692301, 4248.58974359, 4230.64102558, 4308.33333348, 4108.71794844,0
4130.76923050, 4250.64102564, 4204.99999993, 4225.51282045, 4206.15384609, 4208.07692301, 4241.28205129, 4176.92307679, 4197.43589730, 4191.92307679, 4244.35897436, 4223.20512814, 4283.46153853, 4111.79487152,0
4131.02564075, 4254.23076923, 4205.25641019, 4229.99999993, 4211.79487173, 4220.38461532, 4236.15384616, 4171.92307679, 4203.20512814, 4204.10256404, 4255.89743590, 4220.89743583, 4304.10256425, 4108.71794844,0
4138.46153826, 4275.12820520, 4224.10256404, 4254.61538462, 4245.51282052, 4240.38461539, 4237.17948718, 4177.82051269, 4211.28205122, 4249.23076923, 4277.17948725, 4240.38461539, 4341.53846175, 4110.64102537,0
4152.43589723, 4290.25641033, 4238.71794872, 4269.23076930, 4256.15384616, 4239.87179488, 4246.15384616, 4190.38461525, 4218.20512814, 4257.82051282, 4282.56410264, 4255.00000000, 4347.69230790, 4117.30769203,0
4147.05128185, 4278.33333341, 4225.12820506, 4247.82051282, 4203.20512814, 4226.53846147, 4244.48717949, 4185.25641012, 4211.41025634, 4220.76923070, 4258.33333334, 4238.20512821, 4326.53846168, 4116.79487152,0
4135.76923056, 4254.23076923, 4202.69230763, 4223.58974352, 4191.41025628, 4205.12820506, 4217.69230763, 4166.02564082, 4195.38461525, 4211.28205122, 4235.38461539, 4209.87179481, 4292.69230777, 4121.79487152,0
4148.84615364, 4262.30769231, 4214.87179481, 4243.07692308, 4240.38461539, 4205.38461532, 4207.30769224, 4168.97435884, 4201.02564096, 4237.17948718, 4255.76923077, 4225.51282045, 4300.89743604, 4129.87179460,0
4172.43589730, 4294.23076930, 4251.15384616, 4280.76923084, 4242.69230770, 4227.43589737, 4249.23076923, 4187.05128192, 4219.23076917, 4253.07692308, 4289.87179495, 4270.12820520, 4349.10256431, 4127.94871767,0
4182.43589730, 4318.71794886, 4268.97435905, 4287.69230777, 4235.25641026, 4254.23076923, 4286.28205136, 4200.12820499, 4230.89743583, 4268.20512828, 4298.71794879, 4286.92307700, 4369.10256438, 4123.33333306,0
4184.61538448, 4318.97435912, 4261.15384616, 4274.87179495, 4266.92307700, 4275.76923084, 4272.94871802, 4212.82051275, 4240.76923077, 4280.12820520, 4292.82051289, 4278.20512828, 4363.71794893, 4125.38461511,0
4186.66666653, 4318.97435912, 4258.33333334, 4284.74358982, 4267.17948725, 4280.76923084, 4268.20512828, 4219.23076917, 4247.17948718, 4285.64102571, 4299.87179501, 4280.12820520, 4371.53846182, 4129.61538434,0
4187.94871781, 4323.97435912, 4259.61538462, 4290.38461546, 4229.87179481, 4272.17948725, 4296.53846161, 4214.87179481, 4241.41025641, 4283.46153853, 4301.15384630, 4277.05128212, 4357.94871816, 4133.84615357,0
4190.89743576, 4300.89743604, 4241.79487180, 4262.30769231, 4245.12820513, 4255.89743590, 4282.56410264, 4205.51282045, 4231.41025634, 4265.12820513, 4277.17948725, 4251.28205129, 4320.00000014, 4140.89743569,0
4198.33333320, 4286.02564110, 4237.94871795, 4255.89743590, 4276.15384623, 4252.82051282, 4258.58974359, 4208.71794865, 4230.76923070, 4264.35897436, 4273.58974366, 4249.23076923, 4325.12820527, 4143.20512800,0
4208.97435891, 4314.10256425, 4267.17948725, 4287.17948725, 4260.64102564, 4265.89743590, 4293.20512828, 4230.25641019, 4242.56410257, 4289.61538469, 4305.51282066, 4281.53846161, 4380.25641054, 4141.28205108,0
4208.71794865, 4331.41025655, 4272.69230777, 4294.35897443, 4248.46153847, 4267.17948725, 4308.07692322, 4236.92307693, 4243.46153847, 4280.25641033, 4314.35897450, 4287.05128212, 4400.64102599, 4141.92307672,0
4199.35897422, 4314.10256425, 4249.10256411, 4268.33333341, 4255.76923077, 4258.97435898, 4270.25641033, 4208.97435891, 4228.33333327, 4248.58974359, 4289.48717956, 4264.10256411, 4348.97435919, 4142.69230749,0
4197.30769217, 4304.74358989, 4247.94871795, 4259.23076923, 4245.12820513, 4262.05128206, 4256.53846154, 4182.69230756, 4218.46153840, 4250.76923077, 4281.28205136, 4260.76923077, 4311.28205142, 4140.38461518,0
4203.07692301, 4304.74358989, 4257.82051282, 4263.20512821, 4235.76923077, 4253.33333334, 4264.35897436, 4181.92307679, 4214.99999993, 4256.28205129, 4289.74358982, 4268.46153853, 4343.33333355, 4138.33333313,0
4205.51282045, 4307.82051296, 4259.35897436, 4263.97435898, 4246.41025641, 4242.43589744, 4263.46153847, 4199.35897422, 4221.41025634, 4258.07692308, 4290.64102571, 4274.61538469, 4373.58974387, 4138.07692287,0
4200.25641012, 4310.64102578, 4254.61538462, 4255.76923077, 4244.10256411, 4249.10256411, 4264.10256411, 4207.82051275, 4226.92307686, 4259.23076923, 4268.33333341, 4271.02564110, 4340.89743611, 4138.71794851,0
4204.61538455, 4308.20512835, 4258.58974359, 4261.79487180, 4250.00000000, 4259.48717949, 4277.05128212, 4210.64102558, 4233.20512814, 4270.76923084, 4264.10256411, 4271.02564110, 4336.66666688, 4139.74358954,0
4223.58974352, 4329.48717963, 4284.61538469, 4292.82051289, 4272.69230777, 4277.56410264, 4312.56410271, 4237.69230770, 4258.33333334, 4311.66666681, 4310.76923091, 4301.15384630, 4395.51282079, 4137.94871774,0
4233.46153840, 4375.38461567, 4307.82051296, 4301.53846168, 4269.10256418, 4301.79487194, 4343.97435919, 4261.02564103, 4273.97435905, 4337.43589765, 4341.28205149, 4327.82051296, 4412.17948753, 4138.33333313,0
4224.23076917, 4367.94871823, 4300.89743604, 4286.92307700, 4263.07692308, 4306.79487194, 4321.79487194, 4243.97435898, 4258.71794872, 4310.89743604, 4312.69230784, 4312.94871809, 4386.28205156, 4141.53846133,0
4216.92307686, 4332.17948732, 4286.15384623, 4287.94871802, 4285.25641033, 4294.48717956, 4290.25641033, 4225.51282045, 4248.97435898, 4296.53846161, 4293.58974366, 4294.74358982, 4395.89743618, 4139.10256390,0
4221.53846147, 4341.15384637, 4288.71794879, 4297.43589751, 4292.56410264, 4290.25641033, 4302.94871809, 4228.71794865, 4251.15384616, 4311.02564117, 4319.10256425, 4306.53846168, 4410.51282086, 4136.02564082,0
4230.12820506, 4363.20512842, 4296.66666674, 4314.74358989, 4279.35897443, 4281.79487187, 4306.79487194, 4220.89743583, 4233.71794865, 4286.66666674, 4325.00000014, 4310.64102578, 4385.38461567, 4140.89743569,0
4226.92307686, 4357.56410278, 4297.82051289, 4325.64102578, 4279.35897443, 4264.23076923, 4290.12820520, 4206.53846147, 4223.20512814, 4271.41025648, 4303.07692322, 4298.07692315, 4374.61538490, 4139.99999980,0
4221.66666660, 4351.92307714, 4294.35897443, 4302.43589758, 4277.30769238, 4275.89743597, 4298.58974366, 4215.12820506, 4235.38461539, 4291.92307700, 4298.33333341, 4294.61538469, 4399.61538497, 4133.46153819,0
4229.48717942, 4359.23076944, 4289.48717956, 4294.35897443, 4274.10256418, 4300.51282066, 4316.28205142, 4228.71794865, 4240.38461539, 4286.66666674, 4303.84615399, 4295.25641033, 4407.94871830, 4137.05128185,0
4221.79487173, 4336.66666688, 4274.74358982, 4303.33333348, 4288.71794879, 4283.84615392, 4303.84615399, 4221.53846147, 4231.92307686, 4268.97435905, 4292.43589751, 4282.05128212, 4378.20512849, 4138.20512800,0
4215.25641019, 4346.02564124, 4274.74358982, 4280.00000007, 4294.87179495, 4267.56410264, 4296.02564110, 4220.89743583, 4233.97435898, 4281.79487187, 4285.12820520, 4280.89743597, 4373.20512849, 4134.99999973,0
4231.28205122, 4391.53846182, 4300.25641040, 4285.00000007, 4277.69230777, 4293.84615392, 4321.28205142, 4244.61538462, 4255.38461539, 4304.23076937, 4303.58974373, 4303.71794886, 4398.84615420, 4135.25640998,0
4222.30769224, 4378.20512849, 4299.23076930, 4319.48717963, 4280.00000007, 4294.87179495, 4321.41025655, 4251.92307693, 4262.94871795, 4301.28205142, 4304.61538476, 4304.87179501, 4409.61538497, 4130.12820485,0
4198.71794858, 4361.41025662, 4271.66666674, 4299.74358989, 4282.94871802, 4260.64102564, 4289.61538469, 4227.56410250, 4237.94871795, 4281.02564110, 4287.43589751, 4280.38461546, 4415.89743625, 4124.23076896,0
4204.74358968, 4379.48717977, 4268.07692315, 4286.28205136, 4247.05128206, 4253.84615385, 4287.94871802, 4216.79487173, 4225.89743583, 4272.56410264, 4282.82051289, 4274.10256418, 4423.71794907, 4125.25640998,0
4215.25641019, 4369.10256438, 4279.87179495, 4330.25641040, 4244.87179488, 4270.25641033, 4307.56410271, 4227.17948711, 4241.28205129, 4287.69230777, 4300.00000014, 4283.58974366, 4434.10256452, 4129.87179460,0
4209.48717942, 4371.41025669, 4274.61538469, 4349.87179508, 4284.87179495, 4274.23076930, 4307.82051296, 4224.48717942, 4240.51282052, 4289.48717956, 4329.87179501, 4281.41025648, 4437.43589786, 4129.99999973,0
4209.61538455, 4428.58974394, 4273.33333341, 4350.00000021, 4288.07692315, 4273.33333341, 4310.25641040, 4217.30769224, 4227.69230763, 4279.61538469, 4333.71794893, 4281.02564110, 4447.69230811, 4127.94871767,0
4217.56410250, 4425.64102599, 4274.87179495, 4370.00000028, 4280.38461546, 4279.35897443, 4308.58974373, 4218.71794865, 4227.05128199, 4281.28205136, 4296.79487187, 4285.89743597, 4480.12820562, 4133.84615357,0
4211.66666660, 4372.82051310, 4265.12820513, 4386.28205156, 4298.84615392, 4276.28205136, 4288.46153853, 4216.79487173, 4227.56410250, 4274.35897443, 4279.74358982, 4277.94871802, 4480.00000049, 4133.84615357,0
4213.33333327, 4386.41025669, 4266.15384616, 4401.79487215, 4275.12820520, 4271.53846161, 4295.89743597, 4215.64102558, 4229.48717942, 4270.38461546, 4303.97435912, 4269.74358982, 4430.76923119, 4129.35897408,0
4233.84615385, 4451.92307734, 4280.89743597, 4416.02564138, 4233.84615385, 4282.05128212, 4322.30769245, 4226.92307686, 4235.38461539, 4278.97435905, 4303.46153860, 4280.25641033, 4460.38461581, 4132.43589716,0
4222.94871788, 4453.07692350, 4270.12820520, 4416.79487215, 4268.33333341, 4273.46153853, 4306.02564117, 4229.35897429, 4231.66666660, 4275.00000007, 4275.12820520, 4280.25641033, 4527.69230825, 4129.74358947,0
4194.35897422, 4372.05128233, 4236.66666667, 4429.87179522, 4291.28205136, 4246.92307693, 4274.74358982, 4213.97435891, 4226.28205122, 4277.94871802, 4271.92307700, 4254.10256411, 4468.20512870, 4124.10256383,0
4207.05128199, 4377.43589772, 4246.41025641, 4469.35897485, 4249.35897436, 4265.12820513, 4298.46153853, 4225.64102558, 4236.92307693, 4300.25641040, 4298.97435905, 4262.94871795, 4462.69230811, 4127.17948691,0
4229.61538455, 4464.61538511, 4283.46153853, 4541.15384678, 4254.23076923, 4292.43589751, 4329.61538476, 4253.07692308, 4248.97435898, 4305.89743604, 4318.58974373, 4300.51282066, 4546.28205191, 4125.76923050,0
4218.07692301, 4447.82051324, 4280.64102571, 4611.79487256, 4293.58974366, 4280.64102571, 4315.12820527, 4244.87179488, 4248.71794872, 4307.05128219, 4310.89743604, 4297.82051289, 4518.71794928, 4119.61538434,0
4203.20512814, 4378.46153874, 4261.53846154, 4659.35897520, 4279.74358982, 4282.94871802, 4305.64102578, 4228.07692301, 4246.28205129, 4322.82051296, 4301.92307707, 4278.97435905, 4500.12820569, 4122.05128178,0
4216.41025634, 4405.64102599, 4276.02564110, 4725.12820610, 4265.38461539, 4301.41025655, 4330.00000014, 4240.64102564, 4254.48717949, 4326.79487194, 4313.33333348, 4293.71794879, 4553.20512883, 4125.51282024,0
4225.51282045, 4449.87179529, 4284.48717956, 4770.51282163, 4293.20512828, 4282.17948725, 4338.20512842, 4248.97435898, 4257.69230770, 4316.02564117, 4327.30769245, 4299.23076930, 4518.71794928, 4124.23076896,0
4213.46153840, 4437.30769273, 4264.23076923, 4765.76923188, 4293.58974366, 4263.84615385, 4318.20512835, 4234.74358975, 4245.00000000, 4312.56410271, 4346.28205149, 4279.61538469, 4498.46153902, 4121.02564075,0
4211.02564096, 4425.64102599, 4262.43589744, 4793.33333452, 4274.74358982, 4288.97435905, 4317.05128219, 4233.33333327, 4243.84615385, 4317.05128219, 4364.23076944, 4278.46153853, 4563.46153916, 4117.94871767,0
4217.30769224, 4417.30769266, 4268.71794879, 4872.94871927, 4290.51282059, 4307.17948732, 4329.74358989, 4242.05128206, 4255.89743590, 4317.56410271, 4365.51282079, 4280.76923084, 4544.10256473, 4121.02564075,0
4217.69230763, 4412.17948753, 4260.38461539, 4929.10256557, 4296.15384623, 4295.64102571, 4327.17948732, 4237.94871795, 4252.94871795, 4302.17948732, 4373.58974387, 4270.51282059, 4512.05128261, 4125.25640998,0
4216.02564096, 4417.69230804, 4257.30769231, 4951.66666813, 4268.84615392, 4283.20512828, 4318.20512835, 4231.15384609, 4241.28205129, 4293.20512828, 4389.10256438, 4268.20512828, 4556.02564165, 4121.15384588,0
4216.53846147, 4413.33333368, 4260.51282052, 4984.23077076, 4257.30769231, 4268.84615392, 4320.25641040, 4234.23076923, 4241.92307693, 4314.10256425, 4407.43589779, 4270.00000007, 4568.58974429, 4118.07692280,0
4215.76923070, 4404.87179522, 4255.89743590, 5017.17948878, 4281.79487187, 4262.05128206, 4319.74358989, 4242.05128206, 4246.28205129, 4317.56410271, 4433.20512863, 4267.43589751, 4555.51282114, 4120.25640998,0
4207.05128199, 4394.74359003, 4242.94871795, 5040.25641193, 4291.53846161, 4268.20512828, 4301.41025655, 4235.38461539, 4241.15384616, 4292.56410264, 4440.12820555, 4261.53846154, 4552.82051345, 4121.41025614,0
4198.46153833, 4378.46153874, 4227.56410250, 5038.84615552, 4255.38461539, 4267.56410264, 4297.05128212, 4219.48717942, 4231.53846147, 4286.28205136, 4429.35897471, 4249.35897436, 4544.10256473, 4121.79487152,0
4199.48717935, 4376.79487208, 4216.79487173, 5038.97436065, 4223.46153840, 4261.66666667, 4309.23076937, 4216.15384609, 4225.89743583, 4282.82051289, 4429.74359009, 4235.76923077, 4544.87179550, 4120.12820485,0
4208.84615378, 4393.71794900, 4219.99999993, 5070.38461713, 4239.35897436, 4262.56410257, 4303.46153860, 4219.74358968, 4225.38461532, 4266.53846154, 4437.56410298, 4233.84615385, 4545.51282114, 4123.33333306,0
4204.35897429, 4396.66666695, 4223.20512814, 5093.58974540, 4272.05128212, 4255.38461539, 4286.92307700, 4211.02564096, 4223.33333327, 4271.02564110, 4431.79487222, 4236.66666667, 4541.15384678, 4123.33333306,0
4199.99999986, 4387.43589772, 4228.46153840, 5107.43589925, 4273.20512828, 4256.79487180, 4293.07692315, 4207.82051275, 4230.51282045, 4294.61538469, 4436.02564145, 4245.89743590, 4563.20512890, 4120.12820485,0
4218.20512814, 4416.79487215, 4257.17948718, 5142.30769419, 4268.07692315, 4288.07692315, 4323.33333348, 4232.05128199, 4255.00000000, 4318.33333348, 4463.07692350, 4274.48717956, 4589.61538531, 4119.35897408,0
4221.41025634, 4442.17948760, 4268.58974366, 5162.94871990, 4287.17948725, 4291.92307700, 4329.61538476, 4244.35897436, 4260.76923077, 4327.05128219, 4481.92307741, 4288.46153853, 4592.56410326, 4116.28205101,0
4211.92307686, 4409.87179522, 4246.15384616, 5142.30769419, 4289.87179495, 4264.74358975, 4310.64102578, 4229.87179481, 4242.82051282, 4308.20512835, 4470.89743639, 4270.89743597, 4582.82051352, 4124.23076896,0
4205.89743583, 4383.07692336, 4236.02564103, 5128.46154034, 4275.64102571, 4266.66666674, 4305.89743604, 4228.20512814, 4241.28205129, 4303.33333348, 4451.02564145, 4258.58974359, 4567.17948788, 4125.64102537,0
4207.05128199, 4403.20512856, 4247.30769231, 5143.84615573, 4281.15384623, 4285.12820520, 4321.15384630, 4249.48717949, 4259.23076923, 4330.12820527, 4456.79487222, 4269.35897443, 4570.25641096, 4117.56410229,0
4211.53846147, 4399.87179522, 4239.87179488, 5130.76923265, 4291.53846161, 4279.61538469, 4316.66666681, 4254.87179488, 4260.25641026, 4323.97435912, 4458.58974401, 4268.71794879, 4581.15384685, 4121.53846126,0
4204.35897429, 4377.17948746, 4225.25641019, 5105.00000181, 4286.79487187, 4271.15384623, 4301.66666681, 4238.20512821, 4248.84615385, 4297.05128212, 4441.53846196, 4253.46153847, 4564.87179557, 4121.41025614,0
4208.46153840, 4392.43589772, 4233.07692301, 5099.10256591, 4283.33333341, 4283.33333341, 4313.33333348, 4231.28205122, 4247.82051282, 4302.94871809, 4435.12820555, 4256.28205129, 4552.30769294, 4121.15384588,0
4218.33333327, 4403.20512856, 4236.15384616, 5083.84615559, 4280.76923084, 4286.79487187, 4324.74358989, 4238.33333334, 4248.07692308, 4303.33333348, 4435.64102606, 4264.74358975, 4559.87179550, 4126.15384588,0
4209.35897429, 4378.07692336, 4224.10256404, 5060.00000174, 4278.20512828, 4282.05128212, 4315.89743604, 4238.97435898, 4243.84615385, 4285.64102571, 4433.33333375, 4256.02564103, 4551.28205191, 4123.33333306,0
4206.66666660, 4371.53846182, 4220.51282045, 5044.23077090, 4279.61538469, 4281.66666674, 4307.05128219, 4233.20512814, 4241.66666667, 4286.92307700, 4433.97435940, 4246.79487180, 4534.61538524, 4123.84615357,0
4219.87179481, 4400.38461574, 4238.71794872, 5043.97436065, 4264.48717949, 4271.66666674, 4315.25641040, 4238.46153847, 4248.33333334, 4304.74358989, 4450.25641068, 4263.71794872, 4556.02564165, 4125.64102537,0
4231.92307686, 4411.53846189, 4254.87179488, 5039.35897603, 4252.82051282, 4260.89743590, 4319.61538476, 4240.89743590, 4249.74358975, 4304.74358989, 4463.20512863, 4284.10256418, 4581.66666737, 4127.69230742,0
4228.58974352, 4390.25641054, 4245.51282052, 5017.17948878, 4263.84615385, 4270.64102571, 4313.20512835, 4231.02564096, 4242.94871795, 4295.12820520, 4460.64102606, 4277.17948725, 4573.84615454, 4127.94871767,0
4217.30769224, 4376.53846182, 4237.94871795, 4987.17948871, 4269.74358982, 4278.97435905, 4312.17948732, 4223.46153840, 4236.28205129, 4290.12820520, 4452.43589786, 4269.35897443, 4561.02564165, 4122.56410229,0
4221.53846147, 4379.23076951, 4240.00000000, 4949.61538608, 4264.23076923, 4257.30769231, 4302.56410271, 4209.61538455, 4220.12820506, 4274.10256418, 4446.66666709, 4270.00000007, 4542.82051345, 4127.82051255,0
4223.46153840, 4383.46153874, 4240.76923077, 4911.02564242, 4265.76923077, 4244.74358975, 4291.92307700, 4203.84615378, 4214.99999993, 4270.00000007, 4450.51282093, 4268.07692315, 4531.79487242, 4129.74358947,0
4222.17948711, 4376.41025669, 4242.82051282, 4860.00000132, 4270.51282059, 4268.07692315, 4296.79487187, 4224.10256404, 4233.33333327, 4280.89743597, 4444.48717991, 4267.82051289, 4545.38461601, 4127.82051255,0
4224.87179481, 4359.87179508, 4238.84615385, 4797.94871913, 4267.69230777, 4272.69230777, 4301.53846168, 4233.20512814, 4241.79487180, 4287.94871802, 4424.87179522, 4261.92307693, 4540.00000063, 4130.38461511,0
4217.05128199, 4356.53846175, 4232.56410250, 4752.05128310, 4247.82051282, 4254.35897436, 4299.87179501, 4225.25641019, 4233.46153840, 4292.17948725, 4421.79487215, 4251.66666667, 4517.94871851, 4124.99999973,0
4221.28205122, 4352.56410278, 4237.69230770, 4719.48718046, 4241.28205129, 4244.48717949, 4293.07692315, 4228.71794865, 4233.07692301, 4289.10256418, 4430.25641061, 4253.58974359, 4512.56410312, 4130.51282024,0
4229.74358968, 4348.07692329, 4247.69230770, 4696.53846252, 4269.35897443, 4243.84615385, 4288.07692315, 4234.87179488, 4239.74358975, 4282.82051289, 4430.00000035, 4265.51282052, 4511.79487235, 4136.28205108,0
4215.51282045, 4336.41025662, 4233.07692301, 4655.76923161, 4255.76923077, 4242.30769231, 4281.79487187, 4219.87179481, 4226.53846147, 4263.97435898, 4410.12820548, 4253.46153847, 4487.69230818, 4128.97435870,0
4203.97435891, 4302.94871809, 4206.02564096, 4571.66666737, 4210.12820506, 4229.87179481, 4265.89743590, 4194.61538448, 4205.12820506, 4237.69230770, 4374.48717977, 4220.76923070, 4462.56410298, 4128.46153819,0
4206.41025634, 4293.58974366, 4211.79487173, 4517.17948774, 4240.00000000, 4227.82051275, 4269.10256418, 4198.84615371, 4211.92307686, 4246.15384616, 4371.02564131, 4223.71794865, 4468.71794921, 4128.97435870,0
4222.56410250, 4324.35897450, 4245.25641026, 4525.51282107, 4264.23076923, 4253.46153847, 4307.43589758, 4232.69230763, 4235.25641026, 4278.71794879, 4404.87179522, 4263.20512821, 4498.07692364, 4129.99999973,0
4237.94871795, 4336.53846175, 4260.00000000, 4516.79487235, 4231.79487173, 4280.38461546, 4328.58974373, 4244.48717949, 4238.33333334, 4283.58974366, 4413.71794907, 4276.28205136, 4499.87179543, 4132.94871767,0
4224.48717942, 4317.82051296, 4247.43589744, 4470.25641075, 4251.41025641, 4262.30769231, 4309.35897450, 4219.61538455, 4224.99999993, 4267.43589751, 4394.35897464, 4258.07692308, 4478.07692357, 4128.71794844,0
4209.48717942, 4305.00000014, 4232.82051275, 4445.25641068, 4264.74358975, 4225.51282045, 4290.64102571, 4207.05128199, 4211.92307686, 4250.12820513, 4371.66666695, 4243.46153847, 4471.79487229, 4126.92307665,0
4215.12820506, 4309.74358989, 4231.41025634, 4441.28205170, 4216.53846147, 4239.61538462, 4296.28205136, 4226.79487173, 4208.33333327, 4236.79487180, 4362.30769252, 4242.82051282, 4468.20512870, 4129.35897408,0
4217.69230763, 4314.74358989, 4237.05128206, 4419.10256445, 4218.07692301, 4261.53846154, 4296.28205136, 4234.61538462, 4217.56410250, 4241.15384616, 4369.10256438, 4247.56410257, 4454.35897478, 4129.35897408,0
4214.35897429, 4303.97435912, 4241.53846154, 4407.30769266, 4262.69230770, 4250.76923077, 4286.79487187, 4225.12820506, 4226.41025634, 4255.25641026, 4375.38461567, 4254.74358975, 4458.71794914, 4126.66666639,0
4206.66666660, 4281.28205136, 4232.56410250, 4401.15384651, 4265.00000000, 4230.64102558, 4278.84615392, 4217.05128199, 4222.17948711, 4254.74358975, 4361.92307714, 4247.94871795, 4457.94871837, 4126.92307665,0
4201.79487173, 4277.30769238, 4222.56410250, 4357.94871816, 4243.58974359, 4223.20512814, 4276.79487187, 4213.97435891, 4215.51282045, 4248.33333334, 4347.05128226, 4235.64102564, 4436.02564145, 4129.61538434,0
4201.79487173, 4283.20512828, 4225.12820506, 4315.38461553, 4238.46153847, 4232.56410250, 4277.17948725, 4207.69230763, 4210.25641019, 4251.66666667, 4350.25641047, 4237.17948718, 4436.15384657, 4125.25640998,0
4203.71794865, 4285.25641033, 4229.74358968, 4307.30769245, 4240.25641026, 4246.92307693, 4277.05128212, 4199.48717935, 4204.10256404, 4249.23076923, 4351.02564124, 4239.74358975, 4438.97435940, 4122.82051255,0
4202.30769224, 4280.76923084, 4223.97435891, 4286.79487187, 4243.97435898, 4247.82051282, 4281.41025648, 4199.35897422, 4204.10256404, 4230.76923070, 4337.30769252, 4232.30769224, 4413.58974394, 4121.92307665,0
4198.84615371, 4277.30769238, 4222.05128199, 4251.28205129, 4250.38461539, 4238.07692308, 4284.61538469, 4203.46153840, 4211.28205122, 4225.76923070, 4334.10256431, 4233.20512814, 4411.53846189, 4117.94871767,0
4201.79487173, 4278.84615392, 4228.20512814, 4236.79487180, 4234.48717949, 4241.53846154, 4282.05128212, 4209.48717942, 4212.43589737, 4235.00000000, 4338.20512842, 4239.23076923, 4427.56410292, 4121.92307665,0
4198.84615371, 4265.89743590, 4220.89743583, 4214.99999993, 4212.05128199, 4238.84615385, 4274.10256418, 4211.02564096, 4206.28205122, 4231.02564096, 4320.38461553, 4230.38461532, 4412.69230804, 4125.76923050,0
4192.05128192, 4258.07692308, 4219.23076917, 4198.84615371, 4221.92307686, 4231.92307686, 4277.82051289, 4213.84615378, 4212.69230763, 4239.48717949, 4314.61538476, 4231.02564096, 4392.94871823, 4120.12820485,0
4198.46153833, 4278.46153853, 4243.97435898, 4221.41025634, 4247.05128206, 4236.15384616, 4284.48717956, 4220.89743583, 4222.30769224, 4254.87179488, 4339.87179508, 4255.38461539, 4397.69230797, 4119.87179460,0
4207.05128199, 4294.74358982, 4271.66666674, 4243.07692308, 4240.76923077, 4231.15384609, 4278.20512828, 4218.33333327, 4216.41025634, 4243.46153847, 4359.23076944, 4277.69230777, 4409.10256445, 4124.74358947,0
4202.94871788, 4287.82051289, 4286.41025648, 4247.69230770, 4225.25641019, 4222.30769224, 4274.35897443, 4212.17948711, 4210.51282045, 4233.97435898, 4379.61538490, 4295.89743597, 4430.64102599, 4123.84615357,0
4205.51282045, 4284.74358982, 4305.12820527, 4261.15384616, 4236.92307693, 4233.46153840, 4274.74358982, 4216.15384609, 4214.99999993, 4237.69230770, 4419.10256445, 4325.64102578, 4449.48717991, 4120.76923050,0
4225.76923070, 4302.30769245, 4340.64102585, 4287.05128212, 4250.00000000, 4250.00000000, 4280.51282059, 4225.25641019, 4222.43589737, 4244.23076923, 4451.28205170, 4360.64102585, 4445.76923119, 4120.76923050,0
4227.05128199, 4314.61538476, 4353.84615406, 4293.33333341, 4240.51282052, 4241.28205129, 4280.25641033, 4217.05128199, 4216.92307686, 4249.87179488, 4451.79487222, 4370.00000028, 4436.92307734, 4124.99999973,0
4213.46153840, 4303.07692322, 4334.10256431, 4270.12820520, 4214.23076917, 4220.89743583, 4267.94871802, 4199.48717935, 4203.58974352, 4240.51282052, 4440.89743632, 4358.20512842, 4442.17948760, 4129.23076896,0
4220.51282045, 4294.87179495, 4331.41025655, 4253.84615385, 4209.10256404, 4215.38461532, 4273.07692315, 4202.17948711, 4207.94871788, 4237.05128206, 4442.05128247, 4359.35897457, 4454.48717991, 4128.33333306,0
4234.23076923, 4307.30769245, 4350.12820534, 4252.94871795, 4223.33333327, 4233.33333327, 4301.28205142, 4219.10256404, 4224.48717942, 4258.84615385, 4449.23076965, 4376.15384644, 4456.53846196, 4126.15384588,0
4228.97435891, 4290.12820520, 4334.74358996, 4228.20512814, 4212.82051275, 4249.74358975, 4299.48717963, 4221.28205122, 4217.94871788, 4256.02564103, 4427.94871830, 4361.79487201, 4435.00000042, 4127.05128178,0
4216.66666660, 4259.74358975, 4295.12820520, 4181.41025628, 4209.48717942, 4234.87179488, 4267.94871802, 4214.23076917, 4204.35897429, 4227.05128199, 4387.05128233, 4317.69230784, 4393.07692336, 4130.12820485,0
4210.89743583, 4251.92307693, 4277.43589751, 4149.61538441, 4223.84615378, 4212.05128199, 4270.38461546, 4224.23076917, 4216.92307686, 4226.28205122, 4362.56410278, 4294.23076930, 4372.56410285, 4129.48717921,0
4206.15384609, 4234.48717949, 4265.64102564, 4131.28205101, 4218.58974352, 4212.17948711, 4275.64102571, 4229.99999993, 4223.71794865, 4237.05128206, 4345.12820534, 4287.05128212, 4382.05128233, 4126.53846126,0
4204.23076917, 4214.35897429, 4250.25641026, 4116.02564075, 4196.79487166, 4212.56410250, 4255.51282052, 4214.99999993, 4207.56410250, 4223.58974352, 4320.38461553, 4270.25641033, 4367.69230797, 4127.94871767,0
4204.23076917, 4218.97435891, 4240.25641026, 4101.28205094, 4192.05128192, 4198.97435884, 4245.89743590, 4200.64102551, 4197.05128192, 4200.64102551, 4294.10256418, 4246.79487180, 4321.53846168, 4130.12820485,0
4203.20512814, 4224.35897429, 4232.05128199, 4088.33333299, 4205.64102558, 4201.28205122, 4245.12820513, 4194.10256397, 4197.56410243, 4195.89743576, 4286.15384623, 4236.02564103, 4310.38461553, 4128.33333306,0
4210.89743583, 4217.56410250, 4232.82051275, 4088.97435863, 4201.15384609, 4212.30769224, 4246.41025641, 4192.69230756, 4197.69230756, 4208.84615378, 4295.89743597, 4245.00000000, 4335.51282073, 4129.10256383,0
4214.74358968, 4212.30769224, 4241.15384616, 4085.89743555, 4184.99999986, 4204.35897429, 4253.33333334, 4192.56410243, 4196.15384602, 4218.20512814, 4299.48717963, 4253.33333334, 4339.35897457, 4128.71794844,0
4215.12820506, 4209.87179481, 4241.28205129, 4074.35897402, 4197.30769217, 4201.79487173, 4254.35897436, 4191.02564089, 4194.87179474, 4214.35897429, 4288.84615392, 4249.87179488, 4334.35897457, 4131.28205101,0
4227.69230763, 4219.10256404, 4241.79487180, 4072.94871761, 4216.41025634, 4212.17948711, 4254.48717949, 4191.92307679, 4197.43589730, 4213.97435891, 4281.66666674, 4249.35897436, 4334.23076944, 4137.94871774,0
4230.51282045, 4226.15384609, 4246.79487180, 4072.69230735, 4201.41025634, 4212.30769224, 4270.00000007, 4193.33333320, 4200.38461525, 4219.61538455, 4280.51282059, 4250.64102564, 4319.74358989, 4133.84615357,0
4220.25641019, 4206.41025634, 4235.38461539, 4058.20512779, 4202.30769224, 4209.23076917, 4273.46153853, 4198.07692294, 4200.51282038, 4220.12820506, 4266.92307700, 4237.43589744, 4307.17948732, 4132.05128178,0
4218.20512814, 4196.92307679, 4219.99999993, 4048.58974318, 4230.51282045, 4217.94871788, 4260.64102564, 4212.43589737, 4207.43589737, 4221.66666660, 4252.82051282, 4225.89743583, 4306.66666681, 4138.07692287,0
4210.89743583, 4197.82051269, 4211.66666660, 4038.58974318, 4207.05128199, 4214.10256404, 4258.71794872, 4217.30769224, 4210.76923070, 4218.07692301, 4241.28205129, 4218.46153840, 4291.41025648, 4132.94871767,0
4199.10256397, 4182.56410243, 4195.89743576, 4012.82051234, 4164.23076903, 4193.71794858, 4253.58974359, 4201.41025634, 4196.92307679, 4199.87179474, 4222.69230763, 4200.51282038, 4266.92307700, 4129.35897408,0
4206.02564096, 4178.97435884, 4192.17948704, 4005.76923029, 4175.64102551, 4203.07692301, 4256.79487180, 4202.17948711, 4189.99999986, 4191.02564089, 4213.58974352, 4199.23076910, 4270.00000007, 4133.07692280,0
4210.12820506, 4185.64102551, 4197.43589730, 4013.07692259, 4196.79487166, 4219.74358968, 4265.38461539, 4212.69230763, 4193.71794858, 4196.02564089, 4213.07692301, 4206.28205122, 4278.58974366, 4131.53846126,0
4199.61538448, 4176.28205115, 4182.56410243, 4002.17948663, 4187.30769217, 4192.56410243, 4253.20512821, 4199.48717935, 4187.05128192, 4190.25641012, 4204.87179481, 4191.15384602, 4264.48717949, 4129.99999973,0
4200.64102551, 4178.71794858, 4173.97435884, 3992.30769176, 4181.53846140, 4173.71794858, 4245.12820513, 4186.79487166, 4181.41025628, 4172.94871781, 4199.87179474, 4181.53846140, 4247.05128206, 4129.99999973,0
4200.76923063, 4170.64102551, 4176.41025628, 3984.74358919, 4179.87179474, 4186.66666653, 4239.61538462, 4180.89743576, 4176.92307679, 4166.41025621, 4192.17948704, 4178.46153833, 4230.25641019, 4128.07692280,0
4182.69230756, 4129.99999973, 4162.69230749, 3967.82051220, 4161.79487159, 4185.76923063, 4218.07692301, 4165.89743569, 4164.74358954, 4171.92307679, 4176.66666653, 4162.17948697, 4212.05128199, 4126.92307665,0
4182.56410243, 4125.38461511, 4154.10256390, 3957.56410194, 4163.33333313, 4173.33333320, 4213.97435891, 4167.17948697, 4168.20512807, 4170.89743576, 4177.94871781, 4156.53846133, 4218.33333327, 4126.92307665,0
4193.07692294, 4148.84615364, 4161.28205108, 3959.35897374, 4185.38461525, 4174.61538448, 4227.82051275, 4181.79487166, 4178.71794858, 4164.10256390, 4183.97435884, 4163.20512800, 4232.69230763, 4124.61538434,0
4181.79487166, 4137.30769210, 4161.53846133, 3957.82051220, 4183.20512807, 4180.76923063, 4220.25641019, 4175.38461525, 4171.79487166, 4166.41025621, 4175.51282038, 4162.82051262, 4221.41025634, 4118.97435870,0
4177.30769217, 4130.76923050, 4159.48717928, 3954.10256348, 4166.02564082, 4184.74358961, 4218.84615378, 4172.43589730, 4170.51282038, 4176.15384602, 4171.79487166, 4165.38461518, 4209.99999993, 4119.35897408,0
4190.76923063, 4156.41025621, 4170.51282038, 3958.97435835, 4153.33333313, 4186.66666653, 4246.28205129, 4194.74358961, 4192.43589730, 4187.05128192, 4181.02564089, 4177.05128192, 4215.89743583, 4119.35897408,0
4194.61538448, 4154.10256390, 4179.87179474, 3968.58974297, 4155.25641005, 4179.23076910, 4243.97435898, 4198.84615371, 4197.56410243, 4191.92307679, 4179.35897422, 4182.30769217, 4216.41025634, 4117.30769203,0
4197.43589730, 4153.33333313, 4188.46153833, 3981.28205073, 4180.51282038, 4189.10256397, 4216.02564096, 4189.23076910, 4185.12820499, 4189.74358961, 4175.76923063, 4193.46153833, 4228.71794865, 4119.35897408,0
4203.58974352, 4184.23076910, 4201.02564096, 3986.53846099, 4191.53846140, 4204.74358968, 4227.17948711, 4198.33333320, 4190.38461525, 4191.41025628, 4187.56410243, 4208.33333327, 4242.30769231, 4118.20512793,0
4190.64102551, 4165.64102544, 4189.74358961, 3968.33333271, 4179.23076910, 4178.58974345, 4237.94871795, 4194.87179474, 4192.05128192, 4188.84615371, 4179.87179474, 4194.23076910, 4208.97435891, 4116.41025614,0
4179.87179474, 4124.74358947, 4169.74358961, 3950.76923015, 4186.41025628, 4159.87179467, 4214.74358968, 4177.94871781, 4178.97435884, 4177.05128192, 4158.97435877, 4176.02564089, 4188.20512807, 4118.07692280,0
4183.20512807, 4133.46153819, 4169.48717935, 3951.41025579, 4186.28205115, 4180.89743576, 4213.33333327, 4180.76923063, 4173.97435884, 4173.33333320, 4158.33333313, 4181.66666653, 4215.76923070, 4118.07692280,0
4180.51282038, 4148.20512800, 4172.17948704, 3952.17948656, 4154.23076903, 4186.02564089, 4235.25641026, 4181.92307679, 4179.23076910, 4177.94871781, 4162.05128185, 4186.28205115, 4215.64102558, 4115.89743562,0
4177.69230756, 4141.28205108, 4171.53846140, 3951.53846092, 4154.87179467, 4169.87179474, 4232.17948711, 4173.46153833, 4178.58974345, 4175.38461525, 4160.38461518, 4184.87179474, 4194.48717935, 4116.15384588,0
4178.46153833, 4143.97435877, 4172.30769217, 3952.30769169, 4174.10256397, 4173.58974345, 4213.33333327, 4171.53846140, 4172.17948704, 4174.35897422, 4158.97435877, 4183.84615371, 4200.12820499, 4116.15384588,0
4173.84615371, 4133.84615357, 4162.17948697, 3939.74358912, 4151.28205108, 4175.25641012, 4206.15384609, 4169.48717935, 4169.99999986, 4176.92307679, 4147.05128185, 4170.76923063, 4194.48717935, 4113.71794844,0
4169.48717935, 4111.79487152, 4152.30769210, 3931.41025572, 4140.25641005, 4155.64102544, 4204.87179481, 4170.76923063, 4172.69230756, 4163.20512800, 4134.23076896, 4158.33333313, 4179.74358961, 4115.64102537,0
4169.23076910, 4127.17948691, 4161.92307672, 3942.69230707, 4146.53846133, 4153.07692287, 4209.61538455, 4178.58974345, 4174.35897422, 4153.71794851, 4137.05128185, 4166.92307672, 4183.58974345, 4115.25640998,0
4161.28205108, 4131.53846126, 4154.23076903, 3935.38461469, 4127.05128178, 4158.33333313, 4207.82051275, 4171.79487166, 4167.56410236, 4163.97435877, 4125.89743562, 4161.28205108, 4166.15384595, 4110.89743562,0
4153.58974339, 4089.87179453, 4127.30769203, 3909.35897367, 4138.84615364, 4151.53846133, 4191.02564089, 4165.25641005, 4166.15384595, 4166.66666646, 4107.82051255, 4134.48717921, 4142.56410236, 4115.38461511,0
4159.48717928, 4070.38461504, 4129.61538434, 3913.20512751, 4186.02564089, 4152.82051262, 4196.79487166, 4180.76923063, 4176.15384602, 4158.97435877, 4116.41025614, 4137.82051262, 4148.58974339, 4120.89743562,0
4162.69230749, 4094.74358940, 4141.79487159, 3929.74358905, 4164.23076903, 4158.46153826, 4213.46153840, 4179.99999986, 4177.17948704, 4164.10256390, 4121.28205101, 4155.38461518, 4151.02564082, 4116.92307665,0
4158.46153826, 4112.94871767, 4135.38461518, 3917.17948649, 4102.05128171, 4158.71794851, 4205.89743583, 4160.76923056, 4164.35897415, 4159.74358954, 4104.35897408, 4144.99999980, 4142.69230749, 4115.64102537,0
4155.12820492, 4099.61538427, 4128.20512793, 3902.56410180, 4133.46153819, 4155.89743569, 4186.15384602, 4158.84615364, 4157.56410236, 4137.17948697, 4095.25640991, 4129.35897408, 4136.41025621, 4118.20512793,0
4154.74358954, 4084.23076889, 4131.15384588, 3920.76923008, 4196.92307679, 4157.17948697, 4183.07692294, 4166.79487159, 4168.20512807, 4150.25641005, 4109.10256383, 4140.38461518, 4132.94871767, 4116.79487152,0
4159.99999980, 4088.71794837, 4134.10256383, 3934.35897367, 4176.15384602, 4153.46153826, 4196.92307679, 4169.61538448, 4176.66666653, 4181.79487166, 4120.38461511, 4152.30769210, 4141.02564082, 4116.79487152,0
4163.71794851, 4096.15384581, 4132.94871767, 3916.66666598, 4137.69230749, 4140.38461518, 4205.12820506, 4171.66666653, 4169.99999986, 4178.46153833, 4110.51282024, 4141.79487159, 4144.74358954, 4115.89743562,0
4155.64102544, 4099.10256376, 4134.99999973, 3914.48717880, 4146.28205108, 4147.43589723, 4206.28205122, 4171.53846140, 4163.84615364, 4160.64102544, 4100.12820478, 4137.69230749, 4131.53846126, 4114.23076896,0
4153.71794851, 4100.89743555, 4136.92307672, 3933.58974290, 4150.38461518, 4168.97435884, 4207.82051275, 4171.02564089, 4166.92307672, 4158.46153826, 4099.99999966, 4146.15384595, 4135.89743569, 4117.56410229,0
4158.33333313, 4091.92307658, 4133.20512793, 3931.53846085, 4138.71794851, 4158.07692287, 4197.69230756, 4171.02564089, 4167.56410236, 4148.33333313, 4095.38461504, 4144.61538441, 4135.64102544, 4116.53846126,0
4149.10256390, 4088.07692273, 4130.51282024, 3922.17948649, 4148.07692287, 4138.07692287, 4179.23076910, 4161.02564082, 4161.02564082, 4132.05128178, 4084.74358940, 4136.92307672, 4102.82051255, 4113.20512793,0
4149.61538441, 4099.61538427, 4139.23076903, 3927.30769162, 4143.71794851, 4151.92307672, 4188.84615371, 4158.20512800, 4158.58974339, 4139.87179467, 4088.46153812, 4142.82051262, 4103.20512793, 4117.82051255,0
4154.99999980, 4093.58974325, 4138.33333313, 3926.28205059, 4132.94871767, 4148.58974339, 4198.58974345, 4161.41025621, 4160.12820492, 4152.30769210, 4094.10256376, 4144.99999980, 4133.58974332, 4119.99999973,0
4135.76923056, 4068.20512779, 4114.48717921, 3915.76923008, 4141.92307672, 4113.84615357, 4164.87179467, 4145.12820492, 4148.58974339, 4137.69230749, 4074.61538427, 4121.15384588, 4110.12820485, 4118.07692280,0
4130.76923050, 4060.51282010, 4101.66666632, 3912.17948649, 4127.05128178, 4112.17948691, 4149.87179467, 4135.51282031, 4137.43589723, 4110.38461511, 4055.89743548, 4107.05128178, 4079.74358940, 4121.28205101,0
4147.05128185, 4067.56410215, 4114.35897408, 3912.30769162, 4109.10256383, 4144.99999980, 4186.02564089, 4161.28205108, 4152.82051262, 4121.79487152, 4070.12820478, 4126.41025614, 4106.15384588, 4123.20512793,0
4152.17948697, 4072.17948684, 4123.58974332, 3911.41025572, 4127.56410229, 4156.53846133, 4199.23076910, 4174.74358961, 4168.97435884, 4151.15384595, 4089.35897402, 4137.94871774, 4117.30769203, 4123.71794844,0
4145.89743569, 4065.38461497, 4113.71794844, 3909.61538392, 4142.05128185, 4125.64102537, 4165.64102544, 4147.05128185, 4154.23076903, 4144.74358954, 4084.10256376, 4123.58974332, 4089.48717914, 4124.10256383,0
4139.10256390, 4043.58974318, 4102.43589709, 3901.92307616, 4113.07692280, 4092.43589709, 4141.53846133, 4122.17948691, 4131.41025614, 4119.61538434, 4065.38461497, 4109.87179460, 4080.12820478, 4124.35897408,0
4134.10256383, 4032.30769183, 4099.35897402, 3894.87179411, 4107.43589716, 4099.48717914, 4140.89743569, 4124.99999973, 4130.76923050, 4107.56410229, 4052.69230728, 4106.28205101, 4084.48717914, 4127.43589716,0
4139.48717928, 4051.28205087, 4109.87179460, 3903.20512744, 4131.28205101, 4131.92307665, 4159.35897415, 4148.20512800, 4149.87179467, 4121.02564075, 4061.92307651, 4119.48717921, 4086.66666632, 4123.58974332,0
4156.41025621, 4066.92307651, 4119.48717921, 3906.92307623, 4107.05128178, 4138.84615364, 4183.33333320, 4163.46153826, 4156.02564082, 4132.43589716, 4066.28205087, 4131.28205101, 4088.71794837, 4119.99999973,0
4152.56410236, 4062.94871754, 4113.71794844, 3902.05128129, 4097.17948684, 4127.56410229, 4184.10256397, 4149.35897415, 4145.64102544, 4127.05128178, 4052.05128164, 4122.30769203, 4082.05128171, 4122.05128178,0
4144.23076903, 4060.25640984, 4116.02564075, 3913.07692239, 4132.43589716, 4130.89743562, 4178.20512807, 4139.99999980, 4144.10256390, 4117.30769203, 4051.02564061, 4121.02564075, 4081.66666632, 4122.56410229,0
4154.87179467, 4062.30769189, 4123.97435870, 3921.53846085, 4127.17948691, 4131.92307665, 4182.56410243, 4153.58974339, 4150.89743569, 4119.10256383, 4056.53846113, 4131.02564075, 4090.51282017, 4123.33333306,0
4151.79487159, 4066.15384574, 4122.43589716, 3917.94871726, 4121.92307665, 4134.23076896, 4181.41025628, 4162.94871774, 4155.64102544, 4134.99999973, 4054.61538420, 4131.15384588, 4093.84615350, 4122.82051255,0
4147.69230749, 4073.46153812, 4122.69230742, 3922.94871726, 4163.71794851, 4143.58974339, 4169.23076910, 4155.12820492, 4153.84615364, 4133.97435870, 4052.30769189, 4128.84615357, 4089.23076889, 4126.79487152,0
4161.53846133, 4083.71794837, 4131.79487152, 3934.35897367, 4145.12820492, 4143.71794851, 4176.15384602, 4147.05128185, 4147.17948697, 4122.30769203, 4051.79487138, 4134.99999973, 4079.48717914, 4129.99999973,0
4161.41025621, 4079.99999966, 4129.99999973, 3924.99999931, 4097.30769196, 4136.92307672, 4184.35897422, 4138.20512800, 4140.25641005, 4114.10256383, 4041.92307651, 4131.53846126, 4084.48717914, 4127.43589716,0
4154.35897415, 4062.69230728, 4113.20512793, 3908.71794803, 4120.25640998, 4125.12820485, 4171.92307679, 4131.53846126, 4132.82051255, 4091.79487145, 4024.99999952, 4113.84615357, 4085.12820478, 4132.56410229,0
4154.87179467, 4062.17948677, 4103.58974332, 3911.15384546, 4122.43589716, 4119.87179460, 4185.76923063, 4147.05128185, 4137.05128185, 4082.30769196, 4022.17948670, 4104.99999973, 4059.87179446, 4134.99999973,0
4144.61538441, 4058.07692266, 4095.64102530, 3907.56410187, 4097.69230735, 4124.99999973, 4191.92307679, 4155.51282031, 4145.89743569, 4107.43589716, 4036.79487131, 4099.10256376, 4037.56410215, 4129.35897408,0
4139.10256390, 4040.76923036, 4087.17948684, 3895.38461462, 4121.53846126, 4125.89743562, 4152.05128185, 4134.23076896, 4141.53846133, 4130.76923050, 4044.48717907, 4091.41025607, 4049.23076882, 4127.30769203,0
4152.56410236, 4054.35897395, 4098.07692273, 3904.23076847, 4143.46153826, 4127.69230742, 4139.35897415, 4126.53846126, 4137.43589723, 4121.02564075, 4036.92307651, 4105.89743562, 4089.48717914, 4127.17948691,0
4161.28205108, 4073.71794837, 4110.12820485, 3909.74358905, 4109.74358947, 4127.43589716, 4164.23076903, 4133.20512793, 4134.23076896, 4100.12820478, 4031.02564054, 4122.05128178, 4096.41025607, 4129.35897408,0
4151.92307672, 4051.28205087, 4103.58974332, 3891.66666591, 4056.66666625, 4109.23076896, 4173.58974345, 4127.56410229, 4115.76923050, 4079.35897402, 4030.89743541, 4110.38461511, 4051.15384574, 4129.48717921,0
4148.33333313, 4031.28205080, 4100.12820478, 3885.76923001, 4058.84615343, 4100.51282017, 4171.53846140, 4128.71794844, 4115.12820485, 4065.76923036, 4031.41025593, 4101.41025607, 4022.56410208, 4128.46153819,0
4156.92307672, 4052.82051241, 4114.61538434, 3907.82051213, 4115.64102537, 4132.30769203, 4170.76923063, 4142.82051262, 4142.05128185, 4092.30769196, 4035.12820465, 4117.43589716, 4055.51282010, 4130.25640998,0
4153.97435877, 4062.05128164, 4118.97435870, 3914.35897367, 4139.99999980, 4141.15384595, 4156.28205108, 4144.35897415, 4132.30769203, 4111.15384588, 4029.48717900, 4121.02564075, 4074.74358940, 4128.33333306,0
4147.05128185, 4038.58974318, 4117.43589716, 3897.43589668, 4126.15384588, 4114.74358947, 4134.74358947, 4122.94871767, 4125.89743562, 4106.28205101, 4038.20512779, 4117.05128178, 4058.84615343, 4127.69230742,0
4142.43589723, 4030.12820465, 4104.23076896, 3889.74358898, 4115.38461511, 4117.56410229, 4130.51282024, 4120.12820485, 4128.07692280, 4071.15384581, 4038.71794830, 4103.71794844, 4054.48717907, 4127.56410229,0
4136.41025621, 4033.20512772, 4107.82051255, 3918.58974290, 4114.74358947, 4100.51282017, 4146.66666646, 4115.12820485, 4128.07692280, 4085.12820478, 4027.56410208, 4100.76923043, 4043.71794830, 4124.87179460,0
4149.23076903, 4045.76923036, 4120.25640998, 3925.38461469, 4113.46153819, 4103.58974332, 4165.25641005, 4133.20512793, 4128.58974332, 4084.35897402, 4027.56410208, 4111.66666639, 4062.69230728, 4123.33333306,0
