AF3,F7,F3,FC5,T7,P7,O1,O2,P8,T8,FC6,F4,F8,AF4,Label
3980.76923022, 3998.71794817, 3984.10256355, 3967.05128143, 3984.23076868, 3993.33333278, 3991.28205073, 3998.97435842, 3991.41025586, 3989.74358919, 3966.79487117, 3974.35897381, 3985.38461483, 4106.15384588,0
3977.94871740, 3998.07692252, 3988.84615329, 3978.20512765, 3980.12820458, 3988.20512765, 3982.17948663, 3990.38461483, 3985.38461483, 3989.35897381, 3974.10256355, 3975.25640970, 3976.41025586, 4100.89743555,0
3979.10256355, 3991.92307637, 3985.38461483, 3969.99999938, 3971.15384553, 3976.53846099, 3966.92307630, 3979.99999945, 3979.35897381, 3980.64102509, 3969.48717887, 3969.61538399, 3971.41025586, 4107.69230742,0
3973.71794817, 3988.97435842, 3973.97435842, 3959.99999938, 3972.43589688, 3973.84615329, 3960.12820451, 3983.07692252, 3983.71794817, 3977.56410201, 3957.17948656, 3966.02564040, 3972.43589688, 4101.02564068,0
3971.41025586, 3999.87179432, 3978.46153791, 3976.02564047, 3982.05128150, 3986.41025586, 3971.28205073, 3992.69230714, 3992.30769176, 3983.84615329, 3959.99999938, 3975.51281996, 3978.46153791, 4096.28205094,0
3981.92307637, 4001.92307637, 3988.71794817, 3972.69230714, 3982.56410201, 3992.05128150, 3981.15384560, 3993.58974304, 3993.33333278, 3990.12820458, 3969.74358912, 3979.74358919, 3985.38461483, 4107.56410229,0
3985.51281996, 3999.35897381, 3987.69230714, 3960.89743528, 3983.58974304, 3993.84615329, 3983.46153791, 3995.51281996, 3996.28205073, 3991.79487124, 3971.79487124, 3976.53846099, 3988.84615329, 4105.38461511,0
3985.51281996, 3999.35897381, 3987.69230714, 3960.89743528, 3983.58974304, 3993.84615329, 3983.46153791, 3995.51281996, 3996.28205073, 3991.79487124, 3971.79487124, 3976.53846099, 3988.84615329, 4105.38461511,0
3987.05128150, 4011.02564054, 3993.46153791, 3983.33333278, 3993.71794817, 4002.69230714, 3990.38461483, 4005.76923029, 4003.58974304, 3997.30769176, 3975.38461483, 3987.43589688, 3994.61538406, 4104.61538434,0
3989.87179432, 4016.28205080, 4006.15384567, 3997.56410201, 3997.82051227, 4009.10256362, 4000.51281996, 4006.79487131, 4005.12820465, 4012.43589695, 3990.89743535, 4004.23076875, 4007.30769183, 4108.20512793,0
3983.71794817, 4009.99999952, 4007.56410208, 3982.43589688, 3990.76923022, 4008.46153798, 4002.30769176, 4004.23076875, 4005.38461490, 4021.66666618, 4000.25640970, 4006.02564054, 4016.92307644, 4106.41025614,0
3981.41025586, 4010.25640977, 4000.76923022, 3981.02564047, 3987.69230714, 4002.82051227, 3991.92307637, 4004.10256362, 4002.94871740, 4007.56410208, 3989.23076868, 3996.15384560, 4006.92307644, 4108.33333306,0
3989.48717894, 4016.02564054, 4001.41025586, 3994.99999945, 3992.94871740, 3999.35897381, 3982.69230714, 3998.84615329, 3995.25640970, 3994.35897381, 3982.56410201, 3993.33333278, 3995.12820458, 4112.94871767,0
3982.82051227, 4014.48717900, 4002.43589688, 3993.20512765, 3997.56410201, 4001.28205073, 3983.20512765, 3995.51281996, 3991.02564047, 3999.61538406, 3988.20512765, 3995.51281996, 3998.46153791, 4109.35897408,0
3967.56410194, 3996.53846099, 3982.05128150, 3965.89743528, 3984.99999945, 3987.69230714, 3972.56410201, 3989.74358919, 3986.02564047, 3988.46153791, 3969.61538399, 3977.56410201, 3983.84615329, 4104.74358947,0
3971.66666611, 3982.05128150, 3966.41025579, 3948.20512758, 3967.94871733, 3967.69230707, 3956.53846092, 3980.25640970, 3980.25640970, 3967.17948656, 3950.25640963, 3961.53846092, 3961.28205066, 4110.89743562,0
3979.87179432, 4001.02564047, 3986.28205073, 3971.28205073, 3976.28205073, 3981.79487124, 3966.02564040, 3985.25640970, 3991.79487124, 3982.69230714, 3977.05128150, 3982.69230714, 3980.25640970, 4109.61538434,0
3983.97435842, 4022.56410208, 4005.12820465, 3995.51281996, 3991.41025586, 4001.53846099, 3982.30769176, 3995.38461483, 4005.51282003, 4005.64102516, 3999.99999945, 4004.48717900, 4010.12820465, 4108.33333306,0
3992.30769176, 4021.66666618, 4006.28205080, 3992.43589688, 3985.89743535, 3999.61538406, 3989.61538406, 4002.05128150, 4007.82051234, 4010.51282003, 3998.20512765, 4007.43589695, 4016.28205080, 4115.51282024,0
3994.61538406, 4022.94871747, 4012.17948670, 3991.53846099, 3984.87179432, 4005.64102516, 4000.38461483, 4013.58974311, 4013.84615336, 4021.92307644, 4006.79487131, 4015.51282003, 4021.92307644, 4111.79487152,0
3997.30769176, 4029.10256362, 4018.84615336, 4000.25640970, 4006.53846106, 4020.76923029, 4007.94871747, 4019.48717900, 4019.35897388, 4028.84615336, 4013.46153798, 4020.38461490, 4031.15384567, 4109.87179460,0
4001.92307637, 4020.64102516, 4013.07692259, 3996.15384560, 4014.99999952, 4021.41025593, 4008.07692259, 4015.38461490, 4017.17948670, 4021.92307644, 4004.61538413, 4013.33333285, 4027.94871747, 4116.53846126,0
3992.82051227, 4000.12820458, 3999.10256355, 3975.64102509, 3992.56410201, 4008.84615336, 4001.92307637, 4013.46153798, 4012.30769183, 4019.74358926, 3994.99999945, 4002.30769176, 4018.33333285, 4117.69230742,0
3980.64102509, 3993.20512765, 3989.35897381, 3967.05128143, 3978.20512765, 3998.20512765, 3994.87179432, 4011.28205080, 4009.23076875, 4011.92307644, 3991.79487124, 3993.07692252, 4012.56410208, 4114.10256383,0
3992.17948663, 4012.69230721, 4000.64102509, 3985.51281996, 3992.82051227, 4008.46153798, 4004.99999952, 4014.23076875, 4015.89743541, 4011.92307644, 4000.64102509, 4002.94871740, 4018.33333285, 4115.89743562,0
4006.28205080, 4041.02564061, 4023.84615336, 4015.51282003, 4014.99999952, 4035.25640977, 4027.30769183, 4024.61538413, 4027.43589695, 4044.99999959, 4021.15384567, 4027.05128157, 4031.79487131, 4118.97435870,0
4008.46153798, 4066.79487138, 4038.71794830, 4041.79487138, 4032.94871747, 4047.17948677, 4039.23076882, 4029.48717900, 4033.46153798, 4076.92307658, 4038.58974318, 4038.58974318, 4047.30769189, 4116.79487152,0
4011.41025593, 4074.74358940, 4041.53846113, 4045.64102523, 4035.12820465, 4039.23076882, 4037.43589702, 4026.28205080, 4033.33333285, 4073.20512786, 4047.05128164, 4037.82051241, 4064.99999959, 4119.35897408,0
3998.97435842, 4052.82051241, 4028.97435849, 4027.56410208, 4020.89743541, 4032.82051234, 4026.28205080, 4019.61538413, 4025.64102516, 4051.02564061, 4040.89743548, 4026.92307644, 4058.84615343, 4114.23076896,0
3986.28205073, 4033.20512772, 4011.02564054, 4011.92307644, 4016.41025593, 4029.35897388, 4013.07692259, 4012.30769183, 4014.99999952, 4032.05128157, 4020.38461490, 4008.58974311, 4028.20512772, 4107.30769203,0
3998.97435842, 4044.61538420, 4012.56410208, 4011.66666618, 4023.33333285, 4026.92307644, 4012.43589695, 4011.53846106, 4015.38461490, 4024.99999952, 4008.07692259, 4004.35897388, 4017.56410208, 4113.97435870,0
4000.51281996, 4049.61538420, 4019.10256362, 4016.28205080, 4017.82051234, 4026.79487131, 4012.69230721, 4011.28205080, 4016.15384567, 4018.58974311, 4002.56410201, 4004.74358926, 4018.07692259, 4114.87179460,0
3983.46153791, 4033.58974311, 4009.87179439, 4017.05128157, 4006.02564054, 4023.20512772, 4002.56410201, 4005.25640977, 4007.43589695, 4006.28205080, 3996.53846099, 3993.97435842, 4004.48717900, 4108.58974332,0
3991.53846099, 4050.64102523, 4019.23076875, 4034.23076875, 4022.30769183, 4031.41025593, 4015.25640977, 4008.71794824, 4012.43589695, 4018.71794824, 4014.23076875, 4006.02564054, 4020.51282003, 4112.05128178,0
4010.89743541, 4080.76923043, 4045.89743548, 4058.71794830, 4046.66666625, 4050.38461497, 4039.48717907, 4019.74358926, 4026.53846106, 4048.97435856, 4037.82051241, 4034.61538413, 4058.71794830, 4117.43589716,0
4002.30769176, 4060.76923036, 4041.15384574, 4051.53846113, 4036.66666618, 4044.48717907, 4029.99999952, 4015.38461490, 4019.74358926, 4043.58974318, 4027.05128157, 4032.05128157, 4049.61538420, 4114.23076896,0
3990.64102509, 4031.66666618, 4018.58974311, 4031.02564054, 4012.17948670, 4024.74358926, 4011.02564054, 4008.46153798, 4006.02564054, 4016.41025593, 4006.02564054, 4009.61538413, 4019.10256362, 4112.05128178,0
4000.64102509, 4041.66666625, 4020.25640977, 4034.48717900, 4015.64102516, 4028.07692259, 4018.97435849, 4015.76923029, 4011.66666618, 4018.07692259, 4012.30769183, 4011.28205080, 4026.79487131, 4118.58974332,0
3998.84615329, 4044.99999959, 4022.43589695, 4036.66666618, 4026.92307644, 4035.25640977, 4022.94871747, 4013.58974311, 4015.25640977, 4023.46153798, 4016.02564054, 4017.82051234, 4034.61538413, 4117.94871767,0
3985.89743535, 4022.30769183, 4002.43589688, 4020.38461490, 4012.69230721, 4022.56410208, 4006.28205080, 3998.84615329, 4001.28205073, 3997.82051227, 3994.23076868, 3997.05128150, 4006.92307644, 4111.02564075,0
3989.23076868, 4017.43589695, 3996.79487124, 4024.48717900, 4004.61538413, 4012.56410208, 3999.10256355, 3996.28205073, 3995.12820458, 3975.89743535, 3982.17948663, 3984.23076868, 3988.58974304, 4116.79487152,0
3994.10256355, 4036.66666618, 4011.79487131, 4046.66666625, 4020.51282003, 4021.02564054, 4004.61538413, 3999.48717894, 4002.17948663, 3983.33333278, 3990.25640970, 3997.94871740, 4003.71794817, 4117.17948691,0
4001.66666611, 4057.94871754, 4027.05128157, 4054.35897395, 4032.17948670, 4033.58974311, 4010.12820465, 3998.84615329, 4006.15384567, 3996.92307637, 4001.15384560, 4012.43589695, 4018.97435849, 4113.20512793,0
4011.79487131, 4074.87179453, 4049.10256369, 4066.28205087, 4037.30769189, 4045.64102523, 4019.23076875, 4006.53846106, 4014.87179439, 4011.92307644, 4022.43589695, 4031.41025593, 4029.35897388, 4115.76923050,0
4013.71794824, 4077.82051248, 4065.38461497, 4081.92307658, 4049.87179446, 4055.25640984, 4027.43589695, 4017.30769183, 4030.51282003, 4036.92307651, 4046.15384574, 4053.07692266, 4061.02564061, 4112.43589716,0
4018.20512772, 4065.25640984, 4050.64102523, 4066.41025600, 4049.48717907, 4045.12820472, 4022.43589695, 4014.99999952, 4026.53846106, 4035.38461490, 4040.38461497, 4044.35897395, 4075.64102530, 4117.94871767,0
4017.94871747, 4061.66666625, 4037.94871754, 4047.05128164, 4040.51282010, 4036.28205080, 4021.53846106, 4016.41025593, 4017.30769183, 4018.20512772, 4027.94871747, 4026.15384567, 4049.35897395, 4120.64102537,0
4015.38461490, 4073.97435863, 4052.17948677, 4058.71794830, 4049.48717907, 4056.79487138, 4041.53846113, 4033.84615336, 4029.61538413, 4028.97435849, 4036.66666618, 4033.07692259, 4038.46153805, 4116.53846126,0
4021.28205080, 4079.61538427, 4054.35897395, 4074.87179453, 4059.99999959, 4075.12820478, 4057.82051241, 4041.02564061, 4037.82051241, 4039.10256369, 4038.07692266, 4037.94871754, 4048.84615343, 4121.02564075,0
4016.92307644, 4073.20512786, 4038.20512779, 4071.41025607, 4054.99999959, 4068.20512779, 4055.51282010, 4030.76923029, 4031.15384567, 4030.38461490, 4023.97435849, 4026.79487131, 4048.07692266, 4117.82051255,0
4011.02564054, 4066.15384574, 4040.38461497, 4064.35897395, 4045.76923036, 4064.10256369, 4051.41025600, 4027.43589695, 4030.51282003, 4029.10256362, 4016.92307644, 4027.05128157, 4052.30769189, 4116.02564075,0
4021.02564054, 4067.56410215, 4052.69230728, 4070.89743555, 4048.33333292, 4068.07692266, 4050.12820472, 4031.41025593, 4035.12820465, 4036.53846106, 4022.94871747, 4035.12820465, 4056.53846113, 4122.43589716,0
4021.53846106, 4072.43589709, 4044.87179446, 4075.12820478, 4047.30769189, 4056.66666625, 4036.41025593, 4022.17948670, 4026.79487131, 4030.51282003, 4027.94871747, 4029.87179439, 4036.41025593, 4121.66666639,0
4009.10256362, 4077.82051248, 4041.41025600, 4077.56410222, 4040.12820472, 4047.30769189, 4025.12820465, 4012.17948670, 4020.25640977, 4028.97435849, 4034.74358926, 4031.53846106, 4036.66666618, 4115.76923050,0
4027.30769183, 4083.33333299, 4060.76923036, 4089.10256376, 4048.71794830, 4053.58974318, 4032.05128157, 4017.82051234, 4029.23076875, 4042.05128164, 4049.48717907, 4047.43589702, 4069.35897395, 4123.07692280,0
4037.43589702, 4081.92307658, 4070.12820478, 4089.87179453, 4054.61538420, 4051.79487138, 4033.97435849, 4023.07692259, 4033.07692259, 4043.33333292, 4051.92307651, 4051.41025600, 4077.05128171, 4121.15384588,0
4016.15384567, 4082.30769196, 4059.74358933, 4074.99999966, 4042.43589702, 4046.41025600, 4032.05128157, 4023.46153798, 4028.33333285, 4036.92307651, 4038.33333292, 4042.56410215, 4060.76923036, 4112.82051255,0
4048.58974318, 4070.76923043, 4051.53846113, 4062.17948677, 4029.10256362, 4042.05128164, 4029.61538413, 4023.84615336, 4020.64102516, 4022.05128157, 4026.92307644, 4035.25640977, 4052.30769189, 4144.87179467,0
4045.89743548, 4074.74358940, 4070.12820478, 4085.12820478, 4051.28205087, 4059.23076882, 4046.53846113, 4031.79487131, 4033.58974311, 4038.71794830, 4053.46153805, 4055.64102523, 4084.35897402, 4126.41025614,0
4018.84615336, 4119.87179460, 4106.92307665, 4124.74358947, 4090.89743555, 4102.82051255, 4092.94871761, 4056.53846113, 4067.30769189, 4097.30769196, 4098.58974325, 4099.48717914, 4133.20512793, 4093.20512786,0
4065.76923036, 4138.07692287, 4116.28205101, 4128.97435870, 4098.07692273, 4118.20512793, 4111.92307665, 4072.17948684, 4076.28205094, 4115.25640998, 4103.07692280, 4113.20512793, 4129.87179460, 4131.66666639,0
4057.17948677, 4120.89743562, 4097.05128171, 4115.76923050, 4089.87179453, 4102.94871767, 4088.20512786, 4058.58974318, 4059.48717907, 4087.69230735, 4086.92307658, 4092.05128171, 4106.41025614, 4127.56410229,0
4032.30769183, 4105.25640998, 4083.84615350, 4104.35897408, 4074.87179453, 4081.28205094, 4061.41025600, 4039.87179446, 4040.76923036, 4058.33333292, 4073.84615350, 4073.97435863, 4096.02564068, 4117.43589716,0
4040.38461497, 4100.64102530, 4078.46153812, 4104.10256383, 4070.51282017, 4074.87179453, 4054.87179446, 4036.66666618, 4040.12820472, 4053.97435856, 4065.64102523, 4067.56410215, 4082.94871761, 4129.23076896,0
4033.84615336, 4092.43589709, 4067.43589702, 4103.46153819, 4071.02564068, 4074.35897402, 4049.74358933, 4037.05128164, 4043.97435856, 4055.89743548, 4057.30769189, 4058.33333292, 4082.56410222, 4124.99999973,0
4037.43589702, 4078.84615350, 4055.64102523, 4082.05128171, 4051.02564061, 4063.71794830, 4042.94871754, 4033.07692259, 4034.48717900, 4037.82051241, 4041.02564061, 4049.61538420, 4086.28205094, 4127.17948691,0
4025.51282003, 4077.05128171, 4053.07692266, 4075.38461504, 4050.64102523, 4071.28205094, 4051.66666625, 4029.87179439, 4031.66666618, 4037.05128164, 4042.43589702, 4050.64102523, 4071.92307658, 4117.43589716,0
4034.23076875, 4073.33333299, 4054.99999959, 4083.33333299, 4064.10256369, 4075.64102530, 4051.41025600, 4029.74358926, 4029.10256362, 4046.28205087, 4050.64102523, 4048.33333292, 4055.51282010, 4128.33333306,0
4042.94871754, 4090.51282017, 4069.48717907, 4103.97435870, 4074.99999966, 4080.64102530, 4064.74358933, 4039.35897395, 4039.61538420, 4063.46153805, 4067.94871754, 4062.69230728, 4083.20512786, 4126.53846126,0
4038.20512779, 4115.51282024, 4087.94871761, 4124.48717921, 4082.94871761, 4095.89743555, 4092.30769196, 4050.89743548, 4062.56410215, 4088.07692273, 4094.87179453, 4090.89743555, 4124.87179460, 4117.05128178,0
4048.97435856, 4098.46153812, 4085.12820478, 4107.94871767, 4072.94871761, 4089.23076889, 4085.51282017, 4048.07692266, 4058.71794830, 4079.99999966, 4085.64102530, 4086.28205094, 4110.64102537, 4132.94871767,0
4039.10256369, 4093.58974325, 4088.71794837, 4103.07692280, 4071.92307658, 4090.25640991, 4081.28205094, 4049.61538420, 4053.58974318, 4076.66666632, 4078.07692273, 4082.17948684, 4106.66666639, 4125.12820485,0
4054.48717907, 4116.41025614, 4103.20512793, 4120.64102537, 4079.35897402, 4098.07692273, 4090.38461504, 4060.25640984, 4062.56410215, 4093.33333299, 4095.64102530, 4098.71794837, 4138.97435877, 4129.23076896,0
4058.33333292, 4117.05128178, 4098.58974325, 4121.66666639, 4081.53846119, 4089.74358940, 4081.92307658, 4058.84615343, 4062.82051241, 4091.79487145, 4097.69230735, 4097.17948684, 4133.97435870, 4127.82051255,0
4034.23076875, 4107.17948691, 4087.56410222, 4114.74358947, 4083.71794837, 4086.41025607, 4075.89743555, 4050.25640984, 4055.51282010, 4076.41025607, 4086.53846119, 4083.71794837, 4103.97435870, 4119.48717921,0
4044.48717907, 4101.53846119, 4070.89743555, 4103.71794844, 4071.15384581, 4078.46153812, 4065.12820472, 4041.66666625, 4040.51282010, 4054.10256369, 4061.53846113, 4066.66666625, 4079.23076889, 4136.66666646,0
4036.92307651, 4104.61538434, 4063.84615343, 4102.56410229, 4067.56410215, 4073.07692273, 4051.66666625, 4037.94871754, 4034.87179439, 4048.84615343, 4049.61538420, 4060.38461497, 4077.43589709, 4123.20512793,0
4053.07692266, 4138.97435877, 4104.74358947, 4136.53846133, 4097.82051248, 4104.10256383, 4082.56410222, 4056.92307651, 4057.17948677, 4083.07692273, 4087.69230735, 4098.33333299, 4125.12820485, 4121.02564075,0
4074.48717914, 4167.05128185, 4138.20512800, 4171.66666653, 4123.58974332, 4140.25641005, 4127.43589716, 4077.05128171, 4082.30769196, 4116.92307665, 4122.30769203, 4133.97435870, 4173.97435884, 4127.05128178,0
4045.38461497, 4133.97435870, 4108.20512793, 4150.12820492, 4109.48717921, 4129.61538434, 4116.02564075, 4068.20512779, 4074.87179453, 4105.89743562, 4098.58974325, 4107.94871767, 4136.66666646, 4116.28205101,0
4040.89743548, 4089.61538427, 4073.33333299, 4104.35897408, 4083.20512786, 4103.20512793, 4082.30769196, 4049.23076882, 4051.02564061, 4073.84615350, 4066.28205087, 4071.66666632, 4071.53846119, 4127.43589716,0
4044.23076882, 4114.35897408, 4089.35897402, 4117.82051255, 4095.76923043, 4118.58974332, 4098.71794837, 4056.66666625, 4059.10256369, 4083.58974325, 4085.64102530, 4088.97435863, 4106.66666639, 4119.87179460,0
4049.10256369, 4136.28205108, 4102.56410229, 4134.48717921, 4104.23076896, 4125.12820485, 4114.10256383, 4070.25640991, 4073.33333299, 4101.92307658, 4101.53846119, 4104.48717921, 4151.41025621, 4123.97435870,0
4047.43589702, 4109.48717921, 4085.89743555, 4112.30769203, 4084.87179453, 4098.97435863, 4084.99999966, 4061.92307651, 4064.10256369, 4096.41025607, 4093.84615350, 4087.30769196, 4123.33333306, 4129.99999973,0
4033.07692259, 4108.71794844, 4086.28205094, 4115.76923050, 4081.53846119, 4091.92307658, 4072.43589709, 4057.69230728, 4062.43589702, 4095.64102530, 4096.15384581, 4091.79487145, 4123.71794844, 4112.94871767,0
4056.53846113, 4128.07692280, 4102.17948684, 4134.10256383, 4090.76923043, 4099.74358940, 4088.84615350, 4069.23076882, 4073.07692273, 4094.48717914, 4099.10256376, 4108.84615357, 4150.76923056, 4128.07692280,0
4057.69230728, 4134.99999973, 4107.56410229, 4142.17948697, 4110.38461511, 4115.76923050, 4104.74358947, 4077.05128171, 4080.89743555, 4106.15384588, 4106.15384588, 4108.07692280, 4138.97435877, 4124.10256383,0
4048.07692266, 4140.25641005, 4108.97435870, 4151.02564082, 4127.05128178, 4130.64102537, 4107.82051255, 4073.71794837, 4076.66666632, 4120.51282024, 4117.94871767, 4107.69230742, 4125.25640998, 4114.10256383,0
4067.05128164, 4153.46153826, 4121.28205101, 4164.87179467, 4129.99999973, 4132.43589716, 4110.76923050, 4069.48717907, 4069.74358940, 4116.53846126, 4125.38461511, 4121.28205101, 4146.66666646, 4123.58974332,0
4066.79487138, 4175.76923063, 4139.61538441, 4188.46153833, 4140.51282031, 4142.69230749, 4126.66666639, 4072.43589709, 4076.15384581, 4119.35897408, 4127.82051255, 4135.76923056, 4173.07692294, 4114.87179460,0
4066.28205087, 4167.05128185, 4131.66666639, 4185.51282038, 4137.05128185, 4140.25641005, 4120.64102537, 4070.12820478, 4073.07692273, 4108.58974332, 4109.99999973, 4124.87179460, 4145.25641005, 4122.82051255,0
4059.23076882, 4143.33333313, 4108.58974332, 4158.07692287, 4115.64102537, 4123.33333306, 4103.71794844, 4061.92307651, 4062.69230728, 4091.41025607, 4091.92307658, 4105.12820485, 4115.51282024, 4119.74358947,0
4054.99999959, 4154.23076903, 4114.48717921, 4153.84615364, 4115.25640998, 4127.30769203, 4110.89743562, 4063.97435856, 4067.82051241, 4096.92307658, 4094.87179453, 4108.97435870, 4142.30769210, 4111.92307665,0
4071.02564068, 4169.23076910, 4128.71794844, 4167.69230749, 4124.61538434, 4136.53846133, 4118.07692280, 4068.58974318, 4072.69230735, 4099.48717914, 4101.79487145, 4116.66666639, 4147.69230749, 4123.58974332,0
4055.89743548, 4143.07692287, 4110.51282024, 4157.69230749, 4112.94871767, 4118.97435870, 4100.64102530, 4059.10256369, 4060.64102523, 4087.05128171, 4099.87179453, 4098.97435863, 4107.82051255, 4117.17948691,0
4051.79487138, 4114.61538434, 4093.46153812, 4132.43589716, 4096.15384581, 4101.28205094, 4085.89743555, 4053.71794830, 4048.58974318, 4079.61538427, 4094.61538427, 4086.41025607, 4099.23076889, 4123.97435870,0
4073.84615350, 4152.17948697, 4124.23076896, 4158.58974339, 4117.69230742, 4129.99999973, 4113.84615357, 4075.25640991, 4071.79487145, 4104.74358947, 4118.97435870, 4122.69230742, 4149.87179467, 4122.82051255,0
4088.97435863, 4204.10256404, 4166.41025621, 4209.99999993, 4153.71794851, 4165.51282031, 4149.48717928, 4101.15384581, 4106.92307665, 4147.43589723, 4164.10256390, 4166.66666646, 4193.07692294, 4113.71794844,0
4093.58974325, 4194.99999986, 4159.99999980, 4196.53846140, 4149.35897415, 4154.87179467, 4142.56410236, 4098.84615350, 4101.28205094, 4151.15384595, 4157.05128185, 4156.02564082, 4176.15384602, 4125.76923050,0
4068.97435856, 4170.25641012, 4132.17948691, 4164.74358954, 4135.38461518, 4138.33333313, 4124.87179460, 4083.07692273, 4077.56410222, 4120.38461511, 4115.64102537, 4124.10256383, 4150.25641005, 4114.35897408,0
4062.82051241, 4165.51282031, 4124.23076896, 4170.76923063, 4135.76923056, 4138.71794851, 4121.53846126, 4078.20512786, 4075.12820478, 4102.94871767, 4107.94871767, 4119.48717921, 4149.74358954, 4116.28205101,0
4075.38461504, 4164.74358954, 4123.58974332, 4178.07692294, 4133.71794844, 4142.56410236, 4122.17948691, 4079.61538427, 4081.66666632, 4109.23076896, 4118.84615357, 4122.94871767, 4144.61538441, 4125.89743562,0
4065.51282010, 4165.76923056, 4125.89743562, 4172.82051269, 4139.99999980, 4151.02564082, 4126.66666639, 4079.48717914, 4080.38461504, 4117.43589716, 4120.64102537, 4120.25640998, 4131.15384588, 4112.56410229,0
4064.48717907, 4159.87179467, 4126.66666639, 4167.05128185, 4143.33333313, 4147.94871774, 4126.53846126, 4074.74358940, 4075.76923043, 4108.07692280, 4111.53846126, 4117.30769203, 4136.28205108, 4118.46153819,0
4064.74358933, 4151.15384595, 4119.74358947, 4166.92307672, 4133.71794844, 4136.02564082, 4118.33333306, 4071.41025607, 4077.30769196, 4103.71794844, 4108.97435870, 4115.25640998, 4148.84615364, 4119.10256383,0
4067.82051241, 4154.61538441, 4122.94871767, 4169.48717935, 4126.41025614, 4133.84615357, 4113.46153819, 4078.33333299, 4082.17948684, 4120.12820485, 4123.46153819, 4120.38461511, 4144.61538441, 4116.79487152,0
4079.48717914, 4165.89743569, 4139.23076903, 4175.89743576, 4137.30769210, 4142.43589723, 4123.58974332, 4091.66666632, 4091.92307658, 4134.61538434, 4133.46153819, 4131.41025614, 4154.87179467, 4121.41025614,0
4077.30769196, 4168.97435884, 4143.46153826, 4178.71794858, 4145.76923056, 4165.12820492, 4147.05128185, 4092.82051248, 4103.20512793, 4152.05128185, 4137.17948697, 4141.53846133, 4191.66666653, 4120.89743562,0
4083.71794837, 4183.20512807, 4151.66666646, 4187.43589730, 4151.66666646, 4169.87179474, 4151.15384595, 4093.07692273, 4100.89743555, 4147.05128185, 4145.25641005, 4150.51282031, 4179.48717935, 4119.74358947,0
4079.10256376, 4178.33333320, 4145.51282031, 4184.87179474, 4154.10256390, 4163.71794851, 4148.71794851, 4088.07692273, 4092.56410222, 4142.82051262, 4145.12820492, 4143.46153826, 4149.87179467, 4121.15384588,0
4080.12820478, 4172.05128192, 4138.71794851, 4187.82051269, 4158.20512800, 4158.07692287, 4146.53846133, 4094.10256376, 4096.92307658, 4146.15384595, 4134.99999973, 4141.41025621, 4166.92307672, 4123.71794844,0
4076.66666632, 4178.84615371, 4143.71794851, 4193.97435884, 4163.84615364, 4166.28205108, 4151.02564082, 4107.82051255, 4109.74358947, 4154.74358954, 4139.87179467, 4154.74358954, 4195.51282038, 4119.10256383,0
4073.71794837, 4183.46153833, 4141.53846133, 4189.35897422, 4164.74358954, 4171.92307679, 4152.69230749, 4104.61538434, 4106.28205101, 4148.58974339, 4145.89743569, 4154.99999980, 4181.92307679, 4119.48717921,0
4083.97435863, 4187.56410243, 4144.48717928, 4199.23076910, 4168.33333320, 4175.12820499, 4159.48717928, 4100.89743555, 4100.89743555, 4145.76923056, 4151.66666646, 4156.41025621, 4186.53846140, 4126.41025614,0
4087.94871761, 4194.87179474, 4157.56410236, 4209.61538455, 4169.10256397, 4176.53846140, 4163.97435877, 4106.02564075, 4107.05128178, 4153.58974339, 4157.82051262, 4164.99999980, 4201.66666660, 4123.97435870,0
4081.66666632, 4188.97435884, 4151.66666646, 4194.61538448, 4162.17948697, 4164.48717928, 4147.17948697, 4096.53846119, 4100.89743555, 4143.20512800, 4145.38461518, 4152.94871774, 4180.51282038, 4120.76923050,0
4076.28205094, 4181.02564089, 4144.35897415, 4189.48717935, 4164.23076903, 4158.46153826, 4139.35897415, 4089.35897402, 4095.38461504, 4134.10256383, 4139.48717928, 4147.94871774, 4182.94871781, 4122.17948691,0
4079.35897402, 4187.43589730, 4150.64102544, 4199.10256397, 4170.38461525, 4169.74358961, 4153.20512800, 4103.71794844, 4107.56410229, 4148.33333313, 4150.76923056, 4158.71794851, 4200.25641012, 4122.43589716,0
4080.64102530, 4182.94871781, 4144.10256390, 4188.71794858, 4161.66666646, 4173.33333320, 4155.76923056, 4110.64102537, 4110.64102537, 4152.05128185, 4144.74358954, 4146.66666646, 4169.61538448, 4124.61538434,0
4073.20512786, 4172.30769217, 4135.76923056, 4182.30769217, 4157.05128185, 4171.66666653, 4155.38461518, 4102.69230742, 4108.33333306, 4143.84615364, 4135.89743569, 4136.02564082, 4147.94871774, 4125.12820485,0
4076.41025607, 4177.05128192, 4143.46153826, 4192.94871781, 4167.56410236, 4175.38461525, 4165.89743569, 4106.28205101, 4113.46153819, 4143.46153826, 4141.02564082, 4148.71794851, 4176.79487166, 4124.10256383,0
4087.56410222, 4193.84615371, 4152.94871774, 4203.07692301, 4181.92307679, 4181.02564089, 4174.10256397, 4119.10256383, 4118.33333306, 4152.56410236, 4147.94871774, 4160.76923056, 4193.46153833, 4126.79487152,0
4091.92307658, 4211.53846147, 4159.99999980, 4215.76923070, 4190.38461525, 4187.17948704, 4176.28205115, 4123.20512793, 4121.02564075, 4163.07692287, 4154.87179467, 4169.87179474, 4193.71794858, 4128.46153819,0
4097.69230735, 4212.82051275, 4169.61538448, 4225.12820506, 4188.07692294, 4187.30769217, 4175.89743576, 4119.23076896, 4121.92307665, 4169.61538448, 4163.20512800, 4180.12820499, 4209.99999993, 4126.79487152,0
4100.12820478, 4194.87179474, 4169.23076910, 4218.71794865, 4176.15384602, 4178.71794858, 4168.33333320, 4111.02564075, 4114.23076896, 4169.74358961, 4169.61538448, 4180.12820499, 4213.33333327, 4127.17948691,0
4096.53846119, 4186.66666653, 4157.69230749, 4202.05128199, 4166.79487159, 4173.97435884, 4162.05128185, 4104.48717921, 4106.92307665, 4159.61538441, 4167.17948697, 4171.53846140, 4197.43589730, 4129.74358947,0
4096.15384581, 4199.48717935, 4154.99999980, 4194.35897422, 4173.07692294, 4181.15384602, 4167.94871774, 4107.94871767, 4114.61538434, 4154.87179467, 4161.02564082, 4170.89743576, 4197.94871781, 4127.43589716,0
4090.64102530, 4188.71794858, 4154.61538441, 4189.35897422, 4175.25641012, 4178.71794858, 4166.41025621, 4109.10256383, 4118.46153819, 4156.66666646, 4157.56410236, 4168.71794858, 4208.46153840, 4123.58974332,0
4085.12820478, 4159.61538441, 4143.97435877, 4177.56410243, 4162.30769210, 4164.99999980, 4152.82051262, 4101.41025607, 4110.51282024, 4146.92307672, 4148.07692287, 4157.82051262, 4195.76923063, 4126.53846126,0
4090.12820478, 4166.41025621, 4142.82051262, 4179.99999986, 4159.74358954, 4169.48717935, 4155.51282031, 4102.43589709, 4109.61538434, 4142.17948697, 4145.25641005, 4160.25641005, 4181.02564089, 4128.71794844,0
4092.43589709, 4178.97435884, 4153.07692287, 4187.05128192, 4165.38461518, 4179.10256397, 4169.23076910, 4112.56410229, 4114.87179460, 4156.28205108, 4153.71794851, 4171.15384602, 4192.82051269, 4125.25640998,0
4092.94871761, 4159.23076903, 4150.89743569, 4174.61538448, 4161.66666646, 4174.74358961, 4169.61538448, 4115.89743562, 4117.17948691, 4157.69230749, 4148.58974339, 4166.92307672, 4201.79487173, 4125.38461511,0
4099.23076889, 4152.30769210, 4153.33333313, 4173.07692294, 4162.56410236, 4181.15384602, 4177.82051269, 4121.92307665, 4125.89743562, 4156.66666646, 4150.89743569, 4169.99999986, 4205.12820506, 4128.58974332,0
4111.66666639, 4180.89743576, 4172.94871781, 4194.61538448, 4167.05128185, 4200.12820499, 4196.02564089, 4128.71794844, 4137.43589723, 4176.41025628, 4171.92307679, 4189.99999986, 4218.97435891, 4130.64102537,0
4113.71794844, 4201.28205122, 4177.82051269, 4198.07692294, 4169.74358961, 4204.10256404, 4195.38461525, 4124.99999973, 4131.53846126, 4179.35897422, 4168.97435884, 4190.51282038, 4219.10256404, 4126.02564075,0
4106.66666639, 4201.92307686, 4172.94871781, 4195.12820499, 4189.87179474, 4201.53846147, 4190.51282038, 4123.58974332, 4126.28205101, 4173.46153833, 4157.69230749, 4184.99999986, 4210.51282045, 4119.74358947,0
4109.99999973, 4195.25641012, 4176.79487166, 4206.02564096, 4202.17948711, 4201.79487173, 4190.64102551, 4124.99999973, 4132.05128178, 4185.64102551, 4169.48717935, 4191.28205115, 4214.35897429, 4121.02564075,0
4109.61538434, 4186.15384602, 4174.74358961, 4206.53846147, 4186.15384602, 4196.28205115, 4181.66666653, 4117.30769203, 4127.43589716, 4180.89743576, 4171.53846140, 4186.41025628, 4213.33333327, 4123.20512793,0
4109.61538434, 4186.15384602, 4174.74358961, 4206.53846147, 4186.15384602, 4196.28205115, 4181.66666653, 4117.30769203, 4127.43589716, 4180.89743576, 4171.53846140, 4186.41025628, 4213.33333327, 4123.20512793,0
4099.99999966, 4184.99999986, 4162.69230749, 4196.28205115, 4177.30769217, 4188.46153833, 4169.48717935, 4109.35897408, 4116.15384588, 4155.12820492, 4157.56410236, 4175.25641012, 4206.15384609, 4121.02564075,0
4104.10256383, 4191.53846140, 4164.10256390, 4200.12820499, 4183.58974345, 4186.79487166, 4169.87179474, 4113.71794844, 4118.71794844, 4155.89743569, 4160.12820492, 4180.89743576, 4208.58974352, 4121.41025614,0
4114.10256383, 4192.82051269, 4176.92307679, 4208.71794865, 4178.33333320, 4183.97435884, 4169.74358961, 4118.58974332, 4123.97435870, 4166.53846133, 4167.69230749, 4191.92307679, 4208.97435891, 4123.20512793,0
4108.46153819, 4184.10256397, 4174.87179474, 4202.17948711, 4165.76923056, 4171.02564089, 4160.25641005, 4111.79487152, 4116.92307665, 4152.82051262, 4162.69230749, 4186.02564089, 4199.99999986, 4121.92307665,0
4102.56410229, 4183.46153833, 4167.56410236, 4200.64102551, 4169.99999986, 4171.92307679, 4163.33333313, 4110.76923050, 4117.30769203, 4149.10256390, 4165.12820492, 4181.79487166, 4203.58974352, 4121.28205101,0
4110.64102537, 4193.71794858, 4169.61538448, 4207.94871788, 4178.71794858, 4189.99999986, 4177.05128192, 4121.02564075, 4125.12820485, 4160.25641005, 4165.89743569, 4186.15384602, 4209.99999993, 4123.84615357,0
4115.38461511, 4200.76923063, 4175.38461525, 4211.66666660, 4181.41025628, 4198.84615371, 4186.28205115, 4127.30769203, 4129.35897408, 4170.25641012, 4162.56410236, 4190.25641012, 4211.02564096, 4122.69230742,0
4107.94871767, 4200.12820499, 4176.15384602, 4213.71794865, 4187.30769217, 4199.35897422, 4187.94871781, 4124.23076896, 4131.41025614, 4178.33333320, 4169.35897422, 4191.53846140, 4213.58974352, 4115.89743562,0
4105.12820485, 4191.92307679, 4169.23076910, 4211.79487173, 4191.53846140, 4200.12820499, 4183.07692294, 4120.12820485, 4126.15384588, 4172.56410243, 4166.66666646, 4186.92307679, 4207.30769224, 4118.97435870,0
4106.79487152, 4189.99999986, 4164.61538441, 4208.97435891, 4190.25641012, 4195.89743576, 4177.56410243, 4115.64102537, 4119.87179460, 4160.64102544, 4156.15384595, 4183.20512807, 4202.43589737, 4126.15384588,0
4106.53846126, 4195.25641012, 4166.02564082, 4209.61538455, 4188.58974345, 4189.61538448, 4174.61538448, 4112.94871767, 4116.92307665, 4159.87179467, 4158.33333313, 4182.69230756, 4204.35897429, 4123.97435870,0
4110.76923050, 4199.48717935, 4166.53846133, 4210.64102558, 4190.64102551, 4191.15384602, 4177.05128192, 4116.79487152, 4118.33333306, 4162.05128185, 4163.33333313, 4187.30769217, 4205.76923070, 4123.46153819,0
4110.12820485, 4202.69230763, 4165.51282031, 4211.41025634, 4190.89743576, 4192.17948704, 4179.35897422, 4118.84615357, 4125.51282024, 4160.76923056, 4156.92307672, 4190.51282038, 4207.69230763, 4122.05128178,0
4109.10256383, 4204.23076917, 4171.53846140, 4213.58974352, 4184.99999986, 4187.69230756, 4174.87179474, 4117.05128178, 4128.07692280, 4162.17948697, 4157.94871774, 4188.33333320, 4210.51282045, 4121.79487152,0
4113.20512793, 4204.48717942, 4179.48717935, 4216.66666660, 4185.64102551, 4189.74358961, 4173.71794858, 4118.71794844, 4126.02564075, 4164.99999980, 4173.71794858, 4193.46153833, 4214.99999993, 4124.74358947,0
4113.20512793, 4204.48717942, 4179.48717935, 4216.66666660, 4185.64102551, 4189.74358961, 4173.71794858, 4118.71794844, 4126.02564075, 4164.99999980, 4173.71794858, 4193.46153833, 4214.99999993, 4124.74358947,0
4112.94871767, 4204.87179481, 4180.76923063, 4217.82051275, 4196.15384602, 4197.05128192, 4180.25641012, 4125.38461511, 4131.15384588, 4174.10256397, 4183.20512807, 4202.17948711, 4220.64102558, 4119.87179460,0
4104.74358947, 4186.79487166, 4165.38461518, 4196.79487166, 4185.51282038, 4187.30769217, 4172.94871781, 4122.43589716, 4128.33333306, 4164.61538441, 4164.99999980, 4188.46153833, 4209.48717942, 4117.82051255,0
4096.41025607, 4158.84615364, 4145.38461518, 4167.82051262, 4157.17948697, 4172.17948704, 4157.69230749, 4110.76923050, 4114.87179460, 4133.46153819, 4138.84615364, 4164.35897415, 4188.07692294, 4120.25640998,0
4096.41025607, 4158.84615364, 4145.38461518, 4167.82051262, 4157.17948697, 4172.17948704, 4157.69230749, 4110.76923050, 4114.87179460, 4133.46153819, 4138.84615364, 4164.35897415, 4188.07692294, 4120.25640998,0
4104.48717921, 4171.66666653, 4158.46153826, 4179.23076910, 4168.97435884, 4182.94871781, 4170.12820499, 4115.12820485, 4121.41025614, 4142.82051262, 4153.71794851, 4177.82051269, 4198.84615371, 4117.69230742,0
4112.82051255, 4198.71794858, 4181.53846140, 4204.61538455, 4194.87179474, 4193.84615371, 4185.38461525, 4122.43589716, 4128.97435870, 4170.12820499, 4177.69230756, 4200.51282038, 4222.05128199, 4118.46153819,0
4107.05128178, 4192.43589730, 4174.10256397, 4201.15384609, 4185.64102551, 4185.25641012, 4174.48717935, 4112.56410229, 4114.74358947, 4155.64102544, 4164.35897415, 4190.76923063, 4218.58974352, 4123.84615357,0
4111.92307665, 4192.69230756, 4174.87179474, 4202.05128199, 4189.74358961, 4192.56410243, 4175.76923063, 4112.94871767, 4117.56410229, 4154.87179467, 4166.28205108, 4194.61538448, 4221.79487173, 4126.28205101,0
4121.15384588, 4209.61538455, 4191.41025628, 4215.12820506, 4202.82051275, 4208.97435891, 4193.07692294, 4125.38461511, 4136.28205108, 4183.20512807, 4192.94871781, 4213.46153840, 4235.12820513, 4122.05128178,0
4114.23076896, 4202.05128199, 4181.53846140, 4208.84615378, 4185.76923063, 4201.66666660, 4188.33333320, 4123.84615357, 4129.23076896, 4173.84615371, 4186.02564089, 4199.10256397, 4219.74358968, 4122.05128178,0
4107.17948691, 4186.53846140, 4169.74358961, 4204.74358968, 4189.10256397, 4193.20512807, 4177.17948704, 4119.10256383, 4118.58974332, 4154.48717928, 4169.87179474, 4181.66666653, 4204.48717942, 4126.92307665,0
4114.61538434, 4195.76923063, 4185.12820499, 4221.15384609, 4208.71794865, 4199.99999986, 4187.69230756, 4129.99999973, 4134.87179460, 4174.99999986, 4188.46153833, 4199.35897422, 4224.74358968, 4127.94871767,0
4124.48717921, 4213.58974352, 4197.56410243, 4233.20512814, 4196.28205115, 4202.17948711, 4196.79487166, 4138.84615364, 4147.05128185, 4190.89743576, 4204.87179481, 4215.76923070, 4241.79487180, 4126.53846126,0
4125.38461511, 4228.46153840, 4204.23076917, 4241.15384616, 4208.84615378, 4208.97435891, 4194.87179474, 4137.94871774, 4145.25641005, 4191.15384602, 4207.94871788, 4221.53846147, 4244.61538462, 4122.94871767,0
4122.69230742, 4224.23076917, 4207.17948711, 4237.69230770, 4243.07692308, 4217.30769224, 4195.89743576, 4132.17948691, 4142.82051262, 4191.28205115, 4207.30769224, 4222.30769224, 4241.66666667, 4124.61538434,0
4118.20512793, 4199.99999986, 4189.87179474, 4217.05128199, 4225.89743583, 4204.23076917, 4188.33333320, 4122.69230742, 4132.94871767, 4174.23076910, 4192.43589730, 4203.58974352, 4225.89743583, 4126.92307665,0
4112.69230742, 4191.02564089, 4174.35897422, 4206.15384609, 4196.41025628, 4188.20512807, 4174.87179474, 4116.92307665, 4118.33333306, 4156.28205108, 4179.35897422, 4187.69230756, 4208.71794865, 4122.94871767,0
4112.17948691, 4188.97435884, 4171.15384602, 4203.07692301, 4189.99999986, 4180.51282038, 4167.30769210, 4114.74358947, 4112.56410229, 4149.10256390, 4173.07692294, 4186.92307679, 4200.25641012, 4120.38461511,0
4107.30769203, 4174.35897422, 4163.20512800, 4192.17948704, 4177.05128192, 4170.76923063, 4155.38461518, 4111.15384588, 4113.58974332, 4138.20512800, 4158.71794851, 4182.69230756, 4195.64102551, 4123.97435870,0
4094.35897402, 4157.94871774, 4143.71794851, 4173.33333320, 4159.35897415, 4155.89743569, 4135.25640998, 4103.46153819, 4103.97435870, 4118.71794844, 4138.71794851, 4162.56410236, 4177.30769217, 4129.23076896,0
4097.30769196, 4165.51282031, 4146.92307672, 4176.66666653, 4168.20512807, 4160.89743569, 4145.89743569, 4107.69230742, 4106.66666639, 4123.07692280, 4146.15384595, 4160.64102544, 4173.84615371, 4124.23076896,0
4124.48717921, 4213.20512814, 4196.53846140, 4226.15384609, 4206.66666660, 4199.87179474, 4194.10256397, 4136.79487159, 4140.76923056, 4173.58974345, 4194.87179474, 4207.56410250, 4224.48717942, 4122.56410229,0
4139.87179467, 4252.82051282, 4232.94871788, 4267.30769238, 4234.48717949, 4226.66666660, 4217.82051275, 4154.23076903, 4159.10256390, 4212.05128199, 4231.79487173, 4245.25641026, 4268.20512828, 4129.23076896,0
4128.97435870, 4249.61538462, 4224.35897429, 4262.30769231, 4234.48717949, 4222.56410250, 4209.23076917, 4144.74358954, 4146.79487159, 4207.82051275, 4229.99999993, 4235.76923077, 4258.58974359, 4125.89743562,0
4122.30769203, 4229.35897429, 4209.99999993, 4243.84615385, 4222.69230763, 4212.94871788, 4203.07692301, 4137.69230749, 4143.07692287, 4195.25641012, 4214.87179481, 4216.92307686, 4236.15384616, 4123.20512793,0
4128.97435870, 4224.23076917, 4211.15384609, 4241.53846154, 4216.28205122, 4216.02564096, 4207.56410250, 4142.43589723, 4151.92307672, 4196.92307679, 4209.35897429, 4216.41025634, 4236.15384616, 4124.61538434,0
4132.56410229, 4240.12820513, 4219.87179481, 4252.17948718, 4228.84615378, 4229.87179481, 4218.46153840, 4144.48717928, 4152.94871774, 4204.61538455, 4220.25641019, 4225.64102558, 4245.38461539, 4122.05128178,0
4134.48717921, 4248.07692308, 4228.07692301, 4257.56410257, 4239.61538462, 4232.94871788, 4220.89743583, 4144.23076903, 4151.41025621, 4208.46153840, 4229.23076917, 4230.76923070, 4248.97435898, 4122.94871767,0
4130.76923050, 4242.17948718, 4227.05128199, 4254.74358975, 4227.30769224, 4222.05128199, 4212.94871788, 4149.74358954, 4157.43589723, 4212.56410250, 4225.76923070, 4230.12820506, 4248.46153847, 4120.64102537,0
4124.87179460, 4240.38461539, 4221.02564096, 4252.05128206, 4219.10256404, 4218.33333327, 4211.02564096, 4153.97435877, 4164.48717928, 4219.35897429, 4227.17948711, 4228.46153840, 4251.66666667, 4117.43589716,0
4125.76923050, 4227.94871788, 4214.87179481, 4238.97435898, 4222.69230763, 4220.25641019, 4210.64102558, 4147.94871774, 4157.94871774, 4216.28205122, 4228.46153840, 4219.61538455, 4248.46153847, 4120.25640998,0
4119.35897408, 4211.28205122, 4206.92307686, 4223.20512814, 4216.15384609, 4217.43589737, 4204.48717942, 4139.87179467, 4146.53846133, 4202.17948711, 4218.71794865, 4206.53846147, 4236.79487180, 4118.46153819,0
4118.71794844, 4228.84615378, 4216.53846147, 4239.10256411, 4220.38461532, 4223.07692301, 4208.71794865, 4145.89743569, 4151.28205108, 4203.84615378, 4223.33333327, 4216.53846147, 4248.71794872, 4115.25640998,0
4132.94871767, 4252.17948718, 4236.02564103, 4263.97435898, 4244.48717949, 4236.53846154, 4219.61538455, 4154.35897415, 4162.82051262, 4220.64102558, 4246.15384616, 4241.41025641, 4272.43589751, 4116.15384588,0
4136.15384595, 4247.82051282, 4239.35897436, 4260.51282052, 4250.76923077, 4240.64102564, 4223.71794865, 4151.41025621, 4162.94871774, 4226.28205122, 4249.48717949, 4246.02564103, 4270.76923084, 4113.97435870,0
4129.61538434, 4252.05128206, 4238.33333334, 4259.48717949, 4242.05128206, 4240.64102564, 4223.97435891, 4151.15384595, 4157.05128185, 4218.07692301, 4235.25641026, 4239.23076923, 4258.33333334, 4111.92307665,0
4129.48717921, 4265.38461539, 4242.94871795, 4274.10256418, 4244.10256411, 4242.30769231, 4225.12820506, 4155.76923056, 4155.76923056, 4215.89743583, 4235.12820513, 4244.61538462, 4261.79487180, 4115.12820485,0
4134.61538434, 4267.05128212, 4247.17948718, 4282.56410264, 4252.17948718, 4246.02564103, 4234.10256411, 4161.79487159, 4163.07692287, 4227.94871788, 4246.02564103, 4255.25641026, 4274.48717956, 4118.58974332,0
4134.74358947, 4267.05128212, 4251.66666667, 4286.41025648, 4255.12820513, 4249.87179488, 4240.12820513, 4170.89743576, 4176.41025628, 4237.05128206, 4249.23076923, 4256.66666667, 4277.82051289, 4116.15384588,0
4132.05128178, 4266.15384616, 4249.10256411, 4284.48717956, 4250.00000000, 4245.25641026, 4228.33333327, 4168.58974345, 4174.61538448, 4230.12820506, 4247.05128206, 4249.35897436, 4273.46153853, 4112.17948691,0
4134.87179460, 4254.74358975, 4234.87179488, 4271.28205136, 4237.43589744, 4231.92307686, 4213.84615378, 4155.89743569, 4159.61538441, 4218.07692301, 4244.35897436, 4243.97435898, 4269.61538469, 4117.43589716,0
4135.64102544, 4244.74358975, 4227.43589737, 4267.05128212, 4232.69230763, 4228.97435891, 4216.53846147, 4155.25641005, 4158.07692287, 4222.30769224, 4245.38461539, 4242.69230770, 4272.05128212, 4122.82051255,0
4131.66666639, 4241.28205129, 4226.92307686, 4270.51282059, 4233.97435898, 4232.56410250, 4219.48717942, 4157.17948697, 4160.76923056, 4225.12820506, 4246.66666667, 4236.28205129, 4270.89743597, 4118.07692280,0
4124.99999973, 4222.69230763, 4210.89743583, 4249.35897436, 4214.99999993, 4214.99999993, 4197.94871781, 4140.12820492, 4141.02564082, 4193.97435884, 4224.10256404, 4216.15384609, 4245.51282052, 4115.89743562,0
4122.17948691, 4208.58974352, 4199.87179474, 4232.43589737, 4201.02564096, 4199.74358961, 4180.51282038, 4129.61538434, 4131.02564075, 4172.30769217, 4203.97435891, 4208.84615378, 4226.66666660, 4120.64102537,0
4133.97435870, 4221.66666660, 4212.82051275, 4246.15384616, 4212.17948711, 4210.38461532, 4191.79487166, 4140.25641005, 4150.64102544, 4193.58974345, 4218.07692301, 4222.43589737, 4241.53846154, 4122.43589716,0
4143.84615364, 4237.30769231, 4222.43589737, 4257.94871795, 4217.30769224, 4224.23076917, 4211.92307686, 4152.94871774, 4165.64102544, 4212.05128199, 4230.89743583, 4229.99999993, 4257.56410257, 4121.02564075,0
4141.66666646, 4243.97435898, 4228.97435891, 4267.43589751, 4225.25641019, 4236.41025641, 4231.66666660, 4166.15384595, 4172.17948704, 4217.69230763, 4235.00000000, 4242.17948718, 4265.76923077, 4121.53846126,0
4146.53846133, 4252.17948718, 4244.23076923, 4284.87179495, 4245.64102564, 4248.58974359, 4244.87179488, 4175.51282038, 4179.61538448, 4234.23076923, 4249.35897436, 4260.38461539, 4281.66666674, 4123.58974332,0
4149.35897415, 4256.79487180, 4243.97435898, 4284.35897443, 4246.92307693, 4244.35897436, 4236.92307693, 4167.82051262, 4175.25641012, 4236.92307693, 4251.41025641, 4253.07692308, 4280.00000007, 4121.92307665,0
4142.17948697, 4247.30769231, 4230.25641019, 4268.20512828, 4233.46153840, 4236.79487180, 4228.33333327, 4163.20512800, 4168.97435884, 4222.56410250, 4241.92307693, 4237.69230770, 4262.69230770, 4118.46153819,0
4142.05128185, 4237.17948718, 4228.46153840, 4266.53846154, 4234.87179488, 4246.02564103, 4236.66666667, 4170.25641012, 4172.43589730, 4225.12820506, 4243.33333334, 4241.66666667, 4266.92307700, 4120.76923050,0
4142.69230749, 4232.56410250, 4226.41025634, 4268.46153853, 4237.82051282, 4248.20512821, 4232.43589737, 4168.07692287, 4169.10256397, 4229.48717942, 4245.12820513, 4240.89743590, 4275.64102571, 4122.82051255,0
4138.84615364, 4236.28205129, 4218.33333327, 4267.56410264, 4233.07692301, 4239.23076923, 4219.35897429, 4160.51282031, 4163.97435877, 4218.71794865, 4248.46153847, 4233.33333327, 4269.10256418, 4120.12820485,0
4140.76923056, 4247.82051282, 4220.12820506, 4272.43589751, 4237.56410257, 4243.46153847, 4226.53846147, 4162.17948697, 4168.58974345, 4216.02564096, 4253.07692308, 4237.82051282, 4267.43589751, 4118.71794844,0
4147.69230749, 4250.76923077, 4222.43589737, 4273.07692315, 4241.41025641, 4250.25641026, 4232.94871788, 4163.97435877, 4169.10256397, 4219.61538455, 4244.48717949, 4238.46153847, 4266.41025641, 4119.35897408,0
4147.43589723, 4250.12820513, 4222.69230763, 4271.79487187, 4237.43589744, 4245.25641026, 4225.38461532, 4159.23076903, 4167.17948697, 4213.71794865, 4239.35897436, 4236.28205129, 4258.71794872, 4120.64102537,0
4145.12820492, 4254.23076923, 4226.66666660, 4274.10256418, 4237.82051282, 4241.53846154, 4223.07692301, 4159.23076903, 4168.20512807, 4207.05128199, 4243.07692308, 4241.92307693, 4259.74358975, 4119.23076896,0
4155.51282031, 4267.69230777, 4239.48717949, 4282.82051289, 4249.74358975, 4254.10256411, 4239.35897436, 4172.56410243, 4173.71794858, 4219.61538455, 4248.58974359, 4256.28205129, 4279.23076930, 4119.23076896,0
4161.66666646, 4279.10256418, 4254.87179488, 4296.15384623, 4263.20512821, 4267.17948725, 4256.02564103, 4182.17948704, 4180.51282038, 4239.61538462, 4263.84615385, 4269.48717956, 4299.48717963, 4119.61538434,0
4158.71794851, 4273.58974366, 4254.87179488, 4298.71794879, 4263.71794872, 4264.35897436, 4253.71794872, 4177.43589730, 4182.56410243, 4242.94871795, 4272.05128212, 4266.28205129, 4294.10256418, 4120.51282024,0
4159.23076903, 4276.02564110, 4251.79487180, 4301.28205142, 4266.15384616, 4267.94871802, 4255.25641026, 4181.15384602, 4185.51282038, 4241.66666667, 4270.76923084, 4263.20512821, 4285.89743597, 4125.51282024,0
4154.74358954, 4281.92307700, 4254.61538462, 4306.41025655, 4270.38461546, 4275.89743597, 4261.53846154, 4189.87179474, 4190.12820499, 4246.53846154, 4276.15384623, 4267.30769238, 4295.00000007, 4123.46153819,0
4148.58974339, 4265.38461539, 4245.64102564, 4290.12820520, 4255.76923077, 4259.23076923, 4244.23076923, 4179.23076910, 4182.56410243, 4235.89743590, 4264.35897436, 4254.87179488, 4285.64102571, 4119.87179460,0
4149.74358954, 4263.20512821, 4240.00000000, 4279.87179495, 4249.35897436, 4247.43589744, 4232.05128199, 4168.97435884, 4176.66666653, 4227.30769224, 4248.33333334, 4244.61538462, 4271.28205136, 4122.17948691,0
4150.89743569, 4274.61538469, 4243.33333334, 4289.74358982, 4258.84615385, 4261.66666667, 4246.66666667, 4172.69230756, 4182.82051269, 4236.92307693, 4251.92307693, 4248.07692308, 4278.46153853, 4122.43589716,0
4145.64102544, 4259.87179488, 4233.58974352, 4282.69230777, 4251.02564103, 4265.51282052, 4250.76923077, 4173.58974345, 4179.10256397, 4231.92307686, 4243.97435898, 4237.82051282, 4270.00000007, 4120.38461511,0
4144.61538441, 4245.64102564, 4226.66666660, 4272.17948725, 4239.61538462, 4255.25641026, 4243.46153847, 4175.89743576, 4176.79487166, 4221.53846147, 4234.74358975, 4229.10256404, 4255.64102564, 4120.12820485,0
4154.99999980, 4260.64102564, 4240.00000000, 4286.15384623, 4246.53846154, 4255.00000000, 4250.38461539, 4183.46153833, 4187.17948704, 4238.33333334, 4258.97435898, 4247.30769231, 4278.84615392, 4120.25640998,0
4160.64102544, 4270.25641033, 4249.48717949, 4298.46153853, 4249.61538462, 4255.51282052, 4252.30769231, 4182.30769217, 4188.71794858, 4258.84615385, 4277.43589751, 4262.43589744, 4300.38461553, 4118.84615357,0
4164.61538441, 4272.69230777, 4258.71794872, 4306.79487194, 4249.87179488, 4257.82051282, 4252.43589744, 4182.43589730, 4187.56410243, 4263.20512821, 4276.15384623, 4267.82051289, 4295.38461546, 4124.87179460,0
4175.89743576, 4287.30769238, 4285.64102571, 4334.48717970, 4260.89743590, 4272.30769238, 4267.30769238, 4193.71794858, 4198.71794858, 4273.58974366, 4300.64102578, 4286.66666674, 4307.30769245, 4127.30769203,0
4181.28205115, 4303.07692322, 4318.07692322, 4373.71794900, 4269.10256418, 4282.94871802, 4276.02564110, 4203.46153840, 4210.38461532, 4286.15384623, 4344.74358996, 4316.79487194, 4335.12820534, 4121.41025614,0
4183.33333320, 4323.33333348, 4349.48717970, 4418.20512856, 4278.84615392, 4285.12820520, 4274.10256418, 4203.20512814, 4210.25641019, 4282.94871802, 4380.76923105, 4349.23076944, 4347.94871816, 4123.46153819,0
4184.74358961, 4340.76923098, 4373.46153874, 4454.61538504, 4288.20512828, 4286.28205136, 4274.23076930, 4194.61538448, 4203.84615378, 4276.15384623, 4410.64102599, 4372.56410285, 4354.23076944, 4122.43589716,0
4184.35897422, 4333.58974380, 4379.10256438, 4460.00000042, 4279.48717956, 4285.38461546, 4277.30769238, 4188.84615371, 4196.15384602, 4271.79487187, 4424.87179522, 4375.00000028, 4358.97435919, 4120.89743562,0
4190.51282038, 4333.46153867, 4381.53846182, 4458.58974401, 4278.20512828, 4293.20512828, 4285.64102571, 4198.46153833, 4201.66666660, 4277.17948725, 4427.30769266, 4375.12820541, 4361.15384637, 4122.69230742,0
4201.28205122, 4368.97435926, 4404.61538497, 4478.07692357, 4305.38461553, 4315.89743604, 4304.23076937, 4218.33333327, 4227.94871788, 4308.71794886, 4452.56410298, 4400.00000035, 4384.35897464, 4118.20512793,0
4213.07692301, 4391.41025669, 4423.46153881, 4489.74359023, 4326.79487194, 4325.12820527, 4313.97435912, 4225.89743583, 4244.48717949, 4337.43589765, 4479.35897485, 4421.53846189, 4411.15384651, 4119.23076896,0
4210.64102558, 4368.97435926, 4400.64102599, 4465.76923126, 4317.56410271, 4312.17948732, 4301.79487194, 4217.56410250, 4237.82051282, 4332.82051303, 4455.76923119, 4399.74359009, 4394.74359003, 4122.82051255,0
4193.71794858, 4346.15384637, 4365.38461567, 4426.28205163, 4301.02564117, 4303.97435912, 4292.30769238, 4215.25641019, 4229.48717942, 4317.43589758, 4411.79487215, 4363.46153867, 4352.94871816, 4123.07692280,0
4184.35897422, 4333.97435919, 4342.05128226, 4391.28205156, 4292.43589751, 4299.87179501, 4290.00000007, 4218.84615378, 4228.71794865, 4309.23076937, 4387.30769259, 4339.35897457, 4323.07692322, 4122.05128178,0
4184.87179474, 4317.43589758, 4324.35897450, 4366.53846182, 4288.84615392, 4289.48717956, 4281.02564110, 4211.66666660, 4224.35897429, 4301.53846168, 4369.10256438, 4323.07692322, 4306.15384630, 4122.43589716,0
4186.15384602, 4306.41025655, 4314.87179501, 4354.23076944, 4284.74358982, 4282.30769238, 4272.82051289, 4200.64102551, 4212.69230763, 4290.89743597, 4345.38461560, 4312.43589758, 4286.53846161, 4125.25640998,0
4178.84615371, 4298.20512828, 4305.38461553, 4344.10256431, 4278.33333341, 4281.53846161, 4273.20512828, 4196.02564089, 4203.84615378, 4275.64102571, 4326.92307707, 4297.69230777, 4263.71794872, 4121.28205101,0
4173.58974345, 4295.38461546, 4291.28205136, 4336.92307714, 4280.38461546, 4286.79487187, 4276.02564110, 4199.10256397, 4207.30769224, 4268.46153853, 4318.97435912, 4282.17948725, 4253.33333334, 4121.15384588,0
4176.66666653, 4303.33333348, 4285.64102571, 4335.12820534, 4285.64102571, 4293.84615392, 4276.53846161, 4205.64102558, 4214.23076917, 4274.87179495, 4314.61538476, 4280.12820520, 4260.64102564, 4125.64102537,0
4175.12820499, 4309.48717963, 4290.64102571, 4337.05128226, 4290.64102571, 4297.82051289, 4282.43589751, 4207.69230763, 4213.46153840, 4281.02564110, 4314.23076937, 4285.76923084, 4268.58974366, 4120.89743562,0
4179.35897422, 4305.89743604, 4292.05128212, 4336.15384637, 4295.00000007, 4299.10256418, 4289.61538469, 4210.51282045, 4217.56410250, 4286.15384623, 4314.23076937, 4287.82051289, 4271.02564110, 4119.74358947,0
4191.53846140, 4303.71794886, 4290.12820520, 4329.61538476, 4296.28205136, 4302.82051296, 4294.48717956, 4213.97435891, 4227.30769224, 4296.15384623, 4315.64102578, 4291.28205136, 4279.35897443, 4119.74358947,0
4191.79487166, 4306.53846168, 4293.33333341, 4325.38461553, 4296.79487187, 4305.89743604, 4301.28205142, 4212.94871788, 4228.58974352, 4302.69230784, 4321.53846168, 4298.33333341, 4288.46153853, 4119.61538434,0
4189.99999986, 4302.05128219, 4295.00000007, 4322.05128219, 4291.02564110, 4302.05128219, 4305.38461553, 4218.46153840, 4226.02564096, 4298.97435905, 4317.56410271, 4297.94871802, 4283.97435905, 4123.46153819,0
4195.89743576, 4300.64102578, 4297.43589751, 4322.56410271, 4293.20512828, 4305.51282066, 4311.15384630, 4233.07692301, 4233.84615385, 4302.05128219, 4310.89743604, 4296.28205136, 4281.15384623, 4117.69230742,0
4196.02564089, 4304.35897450, 4298.20512828, 4321.02564117, 4300.76923091, 4312.82051296, 4313.33333348, 4235.25641026, 4239.74358975, 4309.10256425, 4312.30769245, 4297.94871802, 4286.79487187, 4116.28205101,0
4190.38461525, 4297.05128212, 4291.02564110, 4308.07692322, 4294.10256418, 4310.25641040, 4307.69230784, 4222.43589737, 4230.89743583, 4299.74358989, 4308.84615399, 4290.89743597, 4281.41025648, 4123.71794844,0
4189.87179474, 4294.23076930, 4288.07692315, 4301.53846168, 4289.74358982, 4312.94871809, 4310.25641040, 4218.58974352, 4230.51282045, 4295.76923084, 4306.92307707, 4286.02564110, 4276.92307700, 4124.10256383,0
4195.64102551, 4301.92307707, 4296.02564110, 4306.41025655, 4295.00000007, 4318.20512835, 4316.15384630, 4225.89743583, 4238.33333334, 4305.89743604, 4312.56410271, 4291.66666674, 4286.79487187, 4122.05128178,0
4194.99999986, 4292.82051289, 4294.35897443, 4302.56410271, 4289.74358982, 4306.53846168, 4305.12820527, 4224.99999993, 4230.25641019, 4303.97435912, 4305.25641040, 4287.82051289, 4283.46153853, 4118.33333306,0
4186.02564089, 4272.17948725, 4278.07692315, 4285.38461546, 4275.25641033, 4290.64102571, 4286.92307700, 4212.17948711, 4214.99999993, 4285.00000007, 4285.64102571, 4273.07692315, 4264.74358975, 4120.38461511,0
4185.76923063, 4281.53846161, 4278.58974366, 4282.30769238, 4282.56410264, 4297.56410264, 4292.56410264, 4213.46153840, 4219.35897429, 4281.53846161, 4286.15384623, 4277.69230777, 4270.12820520, 4124.48717921,0
4188.84615371, 4300.51282066, 4288.20512828, 4296.15384623, 4298.46153853, 4310.12820527, 4304.74358989, 4227.30769224, 4230.12820506, 4295.25641033, 4298.20512828, 4287.82051289, 4285.12820520, 4120.12820485,0
4178.20512807, 4266.15384616, 4263.33333334, 4279.87179495, 4275.12820520, 4290.64102571, 4281.53846161, 4214.48717942, 4214.99999993, 4275.12820520, 4277.56410264, 4260.25641026, 4254.48717949, 4118.84615357,0
4168.07692287, 4239.23076923, 4242.05128206, 4253.97435898, 4250.00000000, 4273.07692315, 4261.02564103, 4197.05128192, 4204.87179481, 4249.61538462, 4255.12820513, 4237.30769231, 4228.46153840, 4121.41025614,0
4184.99999986, 4292.56410264, 4280.89743597, 4288.20512828, 4287.56410264, 4307.05128219, 4299.35897443, 4221.79487173, 4233.71794865, 4287.82051289, 4290.25641033, 4278.46153853, 4273.46153853, 4120.64102537,0
4201.53846147, 4324.87179501, 4308.58974373, 4323.97435912, 4321.53846168, 4333.97435919, 4329.23076937, 4239.87179488, 4248.07692308, 4318.58974373, 4317.82051296, 4308.07692322, 4301.02564117, 4117.43589716,0
4188.33333320, 4277.17948725, 4276.28205136, 4289.87179495, 4293.33333341, 4305.00000014, 4297.17948725, 4217.82051275, 4224.99999993, 4282.56410264, 4280.89743597, 4270.89743597, 4258.58974359, 4117.69230742,0
4185.12820499, 4266.66666674, 4268.20512828, 4274.61538469, 4283.33333341, 4293.84615392, 4286.28205136, 4217.30769224, 4228.20512814, 4278.97435905, 4273.46153853, 4260.89743590, 4255.00000000, 4122.82051255,0
4196.02564089, 4301.66666681, 4290.89743597, 4302.43589758, 4300.25641040, 4316.15384630, 4311.15384630, 4239.10256411, 4248.97435898, 4311.02564117, 4303.07692322, 4290.38461546, 4290.12820520, 4120.12820485,0
4177.05128192, 4275.64102571, 4266.15384616, 4277.05128212, 4274.48717956, 4299.61538476, 4291.79487187, 4224.35897429, 4229.61538455, 4277.30769238, 4276.53846161, 4267.30769238, 4258.07692308, 4111.79487152,0
4166.66666646, 4253.20512821, 4245.51282052, 4253.58974359, 4264.74358975, 4285.38461546, 4272.43589751, 4209.74358968, 4217.94871788, 4255.89743590, 4260.51282052, 4242.05128206, 4237.82051282, 4118.07692280,0
4184.87179474, 4291.66666674, 4278.33333341, 4296.02564110, 4308.58974373, 4317.30769245, 4305.51282066, 4230.51282045, 4246.15384616, 4305.76923091, 4309.74358989, 4275.76923084, 4288.33333341, 4126.02564075,0
4188.07692294, 4301.66666681, 4294.35897443, 4316.02564117, 4322.05128219, 4328.97435912, 4321.66666681, 4240.25641026, 4255.12820513, 4323.71794886, 4324.74358989, 4292.82051289, 4304.61538476, 4120.38461511,0
4187.43589730, 4294.61538469, 4287.56410264, 4302.56410271, 4301.02564117, 4320.76923091, 4309.10256425, 4231.02564096, 4243.20512821, 4304.10256425, 4299.61538476, 4279.74358982, 4282.69230777, 4120.64102537,0
4193.33333320, 4312.05128219, 4297.17948725, 4314.48717963, 4305.64102578, 4330.12820527, 4313.58974373, 4231.53846147, 4244.74358975, 4311.02564117, 4310.12820527, 4289.23076930, 4291.02564110, 4121.79487152,0
4186.28205115, 4314.74358989, 4299.23076930, 4322.94871809, 4318.33333348, 4326.79487194, 4316.79487194, 4234.48717949, 4245.76923077, 4325.12820527, 4328.71794886, 4297.05128212, 4305.51282066, 4117.17948691,0
4187.94871781, 4313.07692322, 4295.64102571, 4317.82051296, 4315.38461553, 4317.82051296, 4314.61538476, 4235.89743590, 4245.89743590, 4327.05128219, 4326.53846168, 4295.00000007, 4311.79487194, 4118.07692280,0
4203.84615378, 4326.53846168, 4314.10256425, 4333.33333355, 4325.12820527, 4333.84615406, 4326.02564117, 4246.66666667, 4256.53846154, 4333.97435919, 4330.76923091, 4309.74358989, 4324.87179501, 4118.20512793,0
4206.53846147, 4329.35897450, 4328.33333348, 4350.64102585, 4333.58974380, 4345.38461560, 4331.28205142, 4253.20512821, 4261.66666667, 4343.33333355, 4340.00000021, 4320.25641040, 4328.33333348, 4118.97435870,0
4200.89743576, 4337.17948739, 4321.53846168, 4347.17948739, 4320.76923091, 4343.46153867, 4329.35897450, 4249.74358975, 4263.07692308, 4349.74358996, 4342.30769252, 4315.38461553, 4326.15384630, 4120.89743562,0
4201.02564096, 4339.87179508, 4308.33333348, 4329.10256425, 4324.61538476, 4336.28205149, 4321.79487194, 4244.35897436, 4259.48717949, 4339.10256431, 4330.00000014, 4305.25641040, 4323.46153860, 4119.99999973,0
4202.82051275, 4322.82051296, 4306.15384630, 4326.53846168, 4345.00000021, 4330.12820527, 4313.58974373, 4243.71794872, 4250.00000000, 4323.20512835, 4326.53846168, 4305.38461553, 4318.84615399, 4119.10256383,0
4206.28205122, 4335.12820534, 4320.00000014, 4351.66666688, 4350.89743611, 4344.48717970, 4327.69230784, 4252.05128206, 4257.17948718, 4339.48717970, 4347.94871816, 4321.66666681, 4323.33333348, 4119.10256383,0
4203.33333327, 4343.20512842, 4309.35897450, 4343.71794893, 4341.66666688, 4347.94871816, 4329.74358989, 4246.28205129, 4258.84615385, 4338.97435919, 4336.02564124, 4309.35897450, 4313.46153860, 4123.46153819,0
4192.69230756, 4308.71794886, 4279.35897443, 4307.94871809, 4329.48717963, 4329.10256425, 4305.89743604, 4226.92307686, 4239.74358975, 4305.51282066, 4293.07692315, 4272.56410264, 4289.23076930, 4126.28205101,0
4198.71794858, 4311.15384630, 4285.51282059, 4316.15384630, 4333.33333355, 4336.15384637, 4309.48717963, 4231.41025634, 4242.56410257, 4312.69230784, 4298.84615392, 4275.00000007, 4295.89743597, 4123.20512793,0
4217.69230763, 4366.15384644, 4321.41025655, 4351.66666688, 4360.89743611, 4364.74358996, 4346.02564124, 4262.69230770, 4274.23076930, 4354.48717970, 4349.23076944, 4319.74358989, 4352.94871816, 4122.43589716,0
4214.35897429, 4376.02564131, 4328.97435912, 4359.74358996, 4391.02564131, 4363.84615406, 4352.17948739, 4271.28205136, 4281.79487187, 4362.43589765, 4361.28205149, 4333.33333355, 4375.64102592, 4121.02564075,0
4198.97435884, 4327.56410271, 4298.07692315, 4336.66666688, 4384.61538490, 4330.76923091, 4313.84615399, 4241.28205129, 4252.82051282, 4333.84615406, 4324.10256425, 4295.25641033, 4318.58974373, 4118.97435870,0
4197.05128192, 4307.17948732, 4280.64102571, 4308.97435912, 4349.74358996, 4309.10256425, 4299.74358989, 4228.33333327, 4239.35897436, 4320.25641040, 4308.07692322, 4275.89743597, 4290.00000007, 4121.02564075,0
4208.07692301, 4339.10256431, 4306.41025655, 4323.84615399, 4357.05128226, 4334.23076944, 4337.82051303, 4253.97435898, 4265.89743590, 4341.92307714, 4336.15384637, 4308.71794886, 4341.02564124, 4120.89743562,0
4219.99999993, 4381.66666695, 4344.61538483, 4389.35897464, 4422.69230804, 4377.30769259, 4367.05128233, 4277.05128212, 4295.00000007, 4376.28205156, 4370.38461567, 4346.02564124, 4389.23076951, 4120.51282024,0
4224.35897429, 4403.33333368, 4358.33333355, 4426.02564138, 4446.28205170, 4390.38461567, 4362.17948739, 4278.07692315, 4297.30769238, 4397.05128233, 4383.97435926, 4353.58974380, 4395.51282079, 4122.17948691,0
4223.84615378, 4396.79487208, 4349.23076944, 4403.33333368, 4403.97435933, 4380.38461567, 4360.51282073, 4271.66666674, 4288.58974366, 4394.23076951, 4379.10256438, 4347.82051303, 4389.23076951, 4121.41025614,0
4219.23076917, 4385.51282079, 4340.76923098, 4385.89743618, 4396.79487208, 4366.53846182, 4353.58974380, 4262.69230770, 4277.30769238, 4369.23076951, 4361.41025662, 4339.87179508, 4379.35897464, 4118.97435870,0
4222.30769224, 4396.53846182, 4344.23076944, 4394.10256438, 4422.94871830, 4360.25641047, 4342.43589765, 4259.48717949, 4275.51282059, 4356.15384637, 4352.94871816, 4335.25641047, 4375.64102592, 4118.84615357,0
4234.35897436, 4405.76923112, 4350.25641047, 4399.35897471, 4406.66666702, 4371.66666695, 4363.07692329, 4272.94871802, 4291.15384623, 4375.12820541, 4364.10256431, 4343.58974380, 4389.74359003, 4121.79487152,0
4229.35897429, 4393.84615413, 4345.51282073, 4394.10256438, 4369.61538490, 4375.64102592, 4376.15384644, 4274.10256418, 4287.43589751, 4372.94871823, 4363.97435919, 4343.84615406, 4391.02564131, 4117.56410229,0
4216.66666660, 4388.84615413, 4338.07692329, 4385.51282079, 4380.25641054, 4358.58974380, 4353.97435919, 4258.71794872, 4266.28205129, 4343.07692329, 4347.56410278, 4328.58974373, 4377.30769259, 4111.02564075,0
4217.94871788, 4397.69230797, 4337.56410278, 4383.58974387, 4423.46153881, 4365.12820541, 4347.43589765, 4260.64102564, 4272.30769238, 4343.07692329, 4347.94871816, 4325.64102578, 4389.87179515, 4115.25640998,0
4215.51282045, 4394.10256438, 4330.12820527, 4385.00000028, 4420.64102599, 4383.84615413, 4351.28205149, 4264.87179488, 4279.10256418, 4353.97435919, 4350.00000021, 4324.87179501, 4396.02564131, 4118.07692280,0
4204.87179481, 4363.84615406, 4305.89743604, 4362.56410278, 4377.17948746, 4346.02564124, 4320.51282066, 4248.33333334, 4254.23076923, 4322.05128219, 4321.92307707, 4295.76923084, 4347.69230790, 4115.89743562,0
4203.58974352, 4350.12820534, 4301.53846168, 4345.76923098, 4368.58974387, 4312.82051296, 4310.00000014, 4244.61538462, 4250.12820513, 4297.56410264, 4311.53846168, 4290.00000007, 4340.00000021, 4116.02564075,0
4218.97435891, 4394.23076951, 4334.61538483, 4381.02564131, 4379.74359003, 4356.79487201, 4353.97435919, 4266.79487187, 4276.02564110, 4325.25641040, 4349.87179508, 4333.46153867, 4408.20512856, 4115.64102537,0
4234.35897436, 4429.74359009, 4351.02564124, 4410.25641061, 4373.97435926, 4382.30769259, 4366.28205156, 4272.94871802, 4281.15384623, 4346.53846175, 4366.02564131, 4346.53846175, 4413.97435933, 4115.51282024,0
4229.48717942, 4415.38461574, 4339.23076944, 4399.48717984, 4395.25641054, 4359.48717970, 4339.74358996, 4263.71794872, 4276.53846161, 4349.48717970, 4352.30769252, 4328.97435912, 4376.79487208, 4116.02564075,0
4211.28205122, 4376.53846182, 4319.35897450, 4371.66666695, 4420.89743625, 4345.89743611, 4317.17948732, 4252.17948718, 4266.41025641, 4333.58974380, 4334.61538483, 4313.84615399, 4367.17948746, 4118.84615357,0
4205.76923070, 4360.76923098, 4301.92307707, 4356.02564124, 4398.20512856, 4346.28205149, 4307.94871809, 4238.71794872, 4249.61538462, 4312.30769245, 4323.20512835, 4294.35897443, 4357.30769252, 4120.12820485,0
4226.92307686, 4408.71794907, 4329.74358989, 4394.87179515, 4388.20512849, 4375.89743618, 4345.38461560, 4260.89743590, 4273.58974366, 4344.61538483, 4353.84615406, 4316.02564117, 4390.12820541, 4117.30769203,0
4239.23076923, 4446.41025683, 4361.53846175, 4434.23076965, 4426.15384651, 4404.23076958, 4372.43589772, 4285.38461546, 4300.25641040, 4376.53846182, 4381.28205156, 4348.58974380, 4429.35897471, 4117.17948691,0
4231.53846147, 4435.00000042, 4356.28205149, 4429.23076958, 4455.12820555, 4393.58974387, 4356.02564124, 4275.38461546, 4289.10256418, 4356.15384637, 4369.61538490, 4341.79487201, 4415.89743625, 4120.38461511,0
4238.84615385, 4445.64102606, 4366.53846182, 4429.23076958, 4447.56410298, 4397.05128233, 4374.35897464, 4278.71794879, 4291.79487187, 4347.17948739, 4378.71794900, 4346.15384637, 4425.25641061, 4121.15384588,0
4248.46153847, 4474.10256459, 4385.64102592, 4444.61538504, 4463.20512863, 4434.48717991, 4403.33333368, 4293.58974366, 4305.89743604, 4362.94871816, 4404.74359009, 4366.28205156, 4466.92307741, 4118.71794844,0
4248.97435898, 4483.07692357, 4389.23076951, 4456.53846196, 4514.87179543, 4458.20512863, 4396.02564131, 4296.79487187, 4307.82051296, 4369.74359003, 4408.20512856, 4374.10256438, 4468.07692357, 4120.38461511,0
4252.17948718, 4485.64102613, 4386.92307720, 4457.82051324, 4500.76923133, 4444.10256452, 4386.02564131, 4292.82051289, 4302.94871809, 4367.56410285, 4398.46153881, 4372.30769259, 4451.28205170, 4123.58974332,0
4245.89743590, 4472.17948767, 4372.94871823, 4447.56410298, 4454.61538504, 4415.64102599, 4375.51282079, 4282.56410264, 4294.10256418, 4352.56410278, 4387.17948746, 4358.33333355, 4453.58974401, 4122.82051255,0
4257.94871795, 4492.30769280, 4398.97435933, 4481.15384664, 4488.71794921, 4437.94871837, 4403.97435933, 4304.23076937, 4316.28205142, 4377.56410285, 4414.48717984, 4382.56410285, 4481.15384664, 4122.05128178,0
4293.97435905, 4564.35897506, 4468.71794921, 4548.71794935, 4538.58974422, 4499.74359030, 4478.97435946, 4352.43589765, 4365.12820541, 4463.97435946, 4487.05128254, 4454.48717991, 4533.46153909, 4121.66666639,0
4295.12820520, 4569.61538531, 4473.33333382, 4546.92307755, 4538.97435960, 4510.51282107, 4481.79487229, 4347.56410278, 4363.58974380, 4486.15384664, 4506.53846210, 4468.46153895, 4560.12820576, 4124.23076896,0
4275.38461546, 4515.38461594, 4423.20512856, 4495.76923126, 4518.58974415, 4487.43589793, 4427.17948753, 4309.10256425, 4322.82051296, 4427.56410292, 4459.74359016, 4422.69230804, 4538.58974422, 4129.48717921,0
4274.87179495, 4508.07692364, 4416.92307727, 4491.53846203, 4520.12820569, 4486.79487229, 4425.38461574, 4316.79487194, 4328.71794886, 4416.66666702, 4447.56410298, 4413.97435933, 4517.56410312, 4130.12820485,0
4282.94871802, 4535.38461601, 4434.74359016, 4516.02564159, 4534.74359037, 4492.43589793, 4450.12820555, 4339.74358996, 4356.92307714, 4453.33333375, 4474.87179536, 4434.35897478, 4526.15384671, 4127.43589716,0
4285.25641033, 4542.17948781, 4429.74359009, 4512.69230825, 4519.61538518, 4482.69230818, 4455.25641068, 4331.15384630, 4347.94871816, 4447.17948760, 4476.41025690, 4432.43589786, 4538.20512883, 4124.74358947,0
4277.30769238, 4523.20512876, 4415.89743625, 4493.71794921, 4501.92307748, 4470.89743639, 4440.51282093, 4316.28205142, 4331.15384630, 4420.25641061, 4459.35897478, 4417.94871830, 4528.07692364, 4125.25640998,0
4261.28205129, 4492.05128254, 4398.07692343, 4476.79487229, 4513.07692364, 4461.41025683, 4395.89743618, 4306.92307707, 4320.89743604, 4412.56410292, 4446.66666709, 4400.76923112, 4508.07692364, 4126.66666639,0
4265.76923077, 4502.94871851, 4401.41025676, 4482.82051331, 4523.71794928, 4472.56410305, 4385.51282079, 4308.20512835, 4316.02564117, 4410.76923112, 4452.05128247, 4405.38461574, 4518.33333389, 4123.71794844,0
4297.82051289, 4556.79487242, 4445.76923119, 4517.94871851, 4507.56410312, 4504.23076979, 4437.82051324, 4324.48717963, 4341.28205149, 4433.84615427, 4489.48717998, 4448.46153888, 4561.66666730, 4123.46153819,0
4305.51282066, 4571.92307762, 4470.89743639, 4529.35897499, 4505.00000056, 4500.00000056, 4458.46153888, 4333.97435919, 4365.12820541, 4472.82051331, 4512.56410312, 4469.74359023, 4577.69230839, 4123.71794844,0
4290.64102571, 4563.20512890, 4455.89743632, 4513.20512876, 4523.07692364, 4473.46153895, 4443.84615427, 4333.46153867, 4356.28205149, 4465.25641075, 4501.41025697, 4454.10256452, 4568.97435967, 4125.76923050,0
4295.38461546, 4565.51282121, 4443.71794914, 4509.10256466, 4532.69230832, 4486.15384664, 4452.82051324, 4338.58974380, 4351.66666688, 4436.66666709, 4496.66666723, 4444.61538504, 4568.33333403, 4127.56410229,0
4305.12820527, 4562.69230839, 4456.15384657, 4523.97435953, 4536.92307755, 4535.25641089, 4472.94871844, 4348.97435919, 4367.05128233, 4458.07692350, 4518.58974415, 4460.25641068, 4576.53846224, 4125.12820485,0
4299.48717963, 4547.56410319, 4456.53846196, 4520.12820569, 4522.69230825, 4539.87179550, 4466.02564152, 4345.12820534, 4366.92307720, 4463.97435946, 4523.71794928, 4466.79487229, 4579.61538531, 4126.53846126,0
4288.20512828, 4532.05128268, 4425.89743625, 4498.46153902, 4517.05128261, 4490.25641075, 4439.10256452, 4326.79487194, 4352.56410278, 4427.94871830, 4493.46153895, 4438.97435940, 4567.56410326, 4127.30769203,0
4289.23076930, 4540.12820576, 4422.05128240, 4513.46153902, 4539.48718012, 4490.25641075, 4442.69230811, 4326.41025655, 4356.79487201, 4445.38461581, 4492.69230818, 4432.17948760, 4558.71794935, 4127.82051255,0
4303.71794886, 4551.02564165, 4446.41025683, 4538.07692371, 4528.46153902, 4530.00000063, 4471.66666716, 4343.58974380, 4363.84615406, 4474.48717998, 4517.05128261, 4455.25641068, 4561.53846217, 4131.66666639,0
4303.58974373, 4541.53846217, 4440.25641068, 4528.20512876, 4502.30769287, 4522.69230825, 4459.87179529, 4342.94871816, 4358.20512842, 4448.07692350, 4508.07692364, 4448.58974401, 4553.20512883, 4128.58974332,0
4296.28205136, 4553.46153909, 4436.41025683, 4531.41025704, 4550.25641089, 4508.07692364, 4435.64102606, 4340.89743611, 4369.61538490, 4450.25641068, 4514.61538518, 4444.61538504, 4575.38461608, 4126.15384588,0
4315.00000014, 4599.87179564, 4470.12820562, 4565.12820583, 4592.43589813, 4522.94871851, 4454.35897478, 4351.79487201, 4388.84615413, 4482.05128254, 4556.66666730, 4481.28205177, 4632.17948802, 4128.84615357,0
4337.05128226, 4627.56410333, 4499.23076979, 4582.30769301, 4546.28205191, 4537.82051345, 4480.76923126, 4351.79487201, 4384.87179515, 4493.97435946, 4575.51282121, 4509.35897492, 4655.89743674, 4128.20512793,0
4328.84615399, 4604.61538538, 4494.23076972, 4575.25641096, 4535.25641089, 4545.64102627, 4471.15384664, 4348.97435919, 4372.82051310, 4489.48717998, 4562.30769301, 4498.97435953, 4641.53846238, 4125.25640998,0
4318.20512835, 4575.89743660, 4483.46153895, 4573.07692378, 4571.53846224, 4543.97435960, 4459.35897478, 4360.76923098, 4382.82051310, 4464.74359023, 4554.23076986, 4486.41025690, 4641.92307776, 4126.79487152,0
4322.30769245, 4573.20512890, 4480.51282100, 4565.38461608, 4558.07692371, 4525.51282107, 4471.53846203, 4368.07692336, 4392.17948746, 4459.23076965, 4552.82051345, 4484.35897485, 4656.92307776, 4130.89743562,0
4319.87179501, 4577.30769301, 4471.28205177, 4546.15384678, 4533.07692371, 4521.66666723, 4471.79487229, 4355.25641047, 4381.28205156, 4488.71794921, 4542.82051345, 4477.30769280, 4656.79487263, 4128.71794844,0
4315.51282066, 4582.69230839, 4465.64102613, 4543.07692371, 4542.30769294, 4540.51282114, 4476.41025690, 4349.61538483, 4376.41025669, 4500.12820569, 4543.97435960, 4470.51282100, 4652.05128289, 4125.25640998,0
4313.97435912, 4562.43589813, 4454.61538504, 4536.66666730, 4541.66666730, 4540.89743653, 4489.35897485, 4356.79487201, 4376.15384644, 4476.79487229, 4547.43589807, 4458.33333375, 4641.53846238, 4128.71794844,0
4306.02564117, 4530.00000063, 4441.28205170, 4517.94871851, 4527.56410312, 4534.35897499, 4480.89743639, 4357.30769252, 4376.15384644, 4454.61538504, 4540.00000063, 4449.23076965, 4637.30769315, 4128.07692280,0
4298.33333341, 4541.66666730, 4447.05128247, 4519.61538518, 4534.74359037, 4534.10256473, 4466.92307741, 4350.89743611, 4386.79487208, 4471.53846203, 4544.35897499, 4457.69230811, 4649.87179571, 4122.82051255,0
4305.00000014, 4568.71794942, 4458.97435940, 4534.35897499, 4541.66666730, 4530.38461601, 4457.69230811, 4349.23076944, 4389.74359003, 4491.28205177, 4559.10256473, 4464.48717998, 4661.41025732, 4122.43589716,0
4308.33333348, 4554.23076986, 4458.97435940, 4528.84615441, 4529.74359037, 4530.76923140, 4452.05128247, 4358.07692329, 4383.46153874, 4469.35897485, 4559.23076986, 4461.41025683, 4674.48718039, 4124.35897408,0
4303.97435912, 4537.43589807, 4452.69230811, 4515.12820569, 4500.76923133, 4528.20512876, 4456.66666709, 4363.97435919, 4389.23076951, 4452.69230811, 4550.76923140, 4459.48717991, 4675.51282142, 4122.69230742,0
4304.35897450, 4534.61538524, 4447.17948760, 4514.87179543, 4482.17948767, 4506.79487235, 4453.84615427, 4356.79487201, 4392.30769259, 4475.76923126, 4550.38461601, 4454.61538504, 4644.61538545, 4121.15384588,0
4298.33333341, 4522.82051338, 4440.76923119, 4520.51282107, 4499.61538518, 4482.94871844, 4437.05128247, 4346.28205149, 4374.10256438, 4477.43589793, 4544.10256473, 4444.23076965, 4631.92307776, 4123.20512793,0
4298.84615392, 4524.23076979, 4442.82051324, 4523.58974415, 4516.92307748, 4491.02564152, 4436.66666709, 4346.92307714, 4367.69230797, 4452.30769273, 4537.56410319, 4446.02564145, 4664.48718039, 4126.53846126,0
4311.41025655, 4542.43589807, 4454.23076965, 4535.00000063, 4521.41025697, 4520.76923133, 4458.71794914, 4358.58974380, 4385.38461567, 4461.92307734, 4550.38461601, 4458.46153888, 4676.92307783, 4125.38461511,0
4315.38461553, 4547.17948781, 4461.53846196, 4551.66666730, 4527.05128261, 4530.76923140, 4474.87179536, 4368.20512849, 4392.17948746, 4490.89743639, 4560.64102627, 4460.89743632, 4659.10256494, 4121.41025614,0
4312.05128219, 4533.20512883, 4457.94871837, 4551.53846217, 4526.02564159, 4520.76923133, 4483.07692357, 4371.15384644, 4386.53846182, 4489.61538511, 4552.17948781, 4453.71794914, 4659.35897520, 4120.51282024,0
4311.79487194, 4522.82051338, 4447.43589786, 4537.94871858, 4524.61538518, 4523.46153902, 4480.89743639, 4368.46153874, 4385.25641054, 4468.20512870, 4540.00000063, 4450.76923119, 4662.56410347, 4120.89743562,0
4310.00000014, 4519.87179543, 4439.23076965, 4527.17948774, 4518.46153902, 4516.79487235, 4470.76923126, 4357.94871816, 4379.87179515, 4456.15384657, 4531.41025704, 4446.02564145, 4655.89743674, 4120.89743562,0
4306.66666681, 4518.07692364, 4440.76923119, 4525.38461594, 4495.12820562, 4504.61538518, 4471.02564152, 4352.17948739, 4372.17948746, 4458.20512863, 4537.43589807, 4448.07692350, 4663.84615475, 4118.71794844,0
4316.92307707, 4527.17948774, 4453.84615427, 4532.43589807, 4490.76923126, 4512.82051338, 4468.71794921, 4361.28205149, 4380.38461567, 4460.89743632, 4554.87179550, 4464.74359023, 4674.74359065, 4119.87179460,0
4324.87179501, 4529.48718012, 4458.33333375, 4533.84615448, 4515.89743646, 4506.79487235, 4447.30769273, 4363.20512842, 4390.25641054, 4467.69230818, 4556.53846217, 4464.87179536, 4673.58974450, 4123.33333306,0
4317.30769245, 4522.30769287, 4456.02564145, 4530.25641089, 4508.71794928, 4494.74359023, 4443.97435940, 4357.17948739, 4388.46153874, 4482.05128254, 4557.82051345, 4459.23076965, 4683.97435988, 4120.51282024,0
4317.56410271, 4524.10256466, 4462.82051324, 4528.58974415, 4475.00000049, 4505.25641082, 4467.43589793, 4362.94871816, 4387.69230797, 4491.15384664, 4572.69230839, 4470.12820562, 4701.41025739, 4120.38461511,0
4323.84615399, 4532.94871858, 4468.97435946, 4531.41025704, 4488.71794921, 4507.82051338, 4469.74359023, 4371.79487208, 4393.97435926, 4475.25641075, 4575.12820583, 4473.84615434, 4696.53846252, 4121.53846126,0
4324.61538476, 4539.10256473, 4469.61538511, 4535.76923140, 4520.76923133, 4497.05128261, 4448.33333375, 4367.43589772, 4398.46153881, 4461.66666709, 4567.43589813, 4466.28205177, 4679.23077014, 4122.17948691,0
4325.00000014, 4536.41025704, 4470.76923126, 4536.02564165, 4519.61538518, 4509.87179543, 4445.25641068, 4357.69230790, 4388.58974387, 4484.10256459, 4569.35897506, 4468.46153895, 4669.35897527, 4127.43589716,0
4318.71794886, 4520.51282107, 4464.87179536, 4527.56410312, 4499.10256466, 4520.00000056, 4447.17948760, 4349.35897457, 4378.71794900, 4494.35897485, 4565.64102634, 4470.25641075, 4670.89743680, 4124.74358947,0
4310.76923091, 4494.35897485, 4443.46153888, 4509.35897492, 4489.61538511, 4491.28205177, 4428.84615420, 4345.89743611, 4381.53846182, 4448.71794914, 4541.28205191, 4450.51282093, 4662.94871886, 4121.66666639,0
4314.35897450, 4493.58974408, 4441.28205170, 4508.20512876, 4485.38461587, 4471.79487229, 4436.02564145, 4353.33333355, 4385.25641054, 4422.43589779, 4524.61538518, 4440.64102606, 4639.10256494, 4126.15384588,0
4328.58974373, 4528.84615441, 4472.17948767, 4522.94871851, 4480.64102613, 4505.76923133, 4477.17948767, 4366.92307720, 4393.58974387, 4463.97435946, 4536.79487242, 4460.25641068, 4634.74359058, 4125.12820485,0
4327.94871809, 4535.51282114, 4476.92307741, 4524.61538518, 4505.00000056, 4533.84615448, 4478.71794921, 4372.05128233, 4399.10256445, 4488.58974408, 4547.30769294, 4462.56410298, 4628.33333417, 4124.48717921,0
4316.15384630, 4512.17948774, 4457.17948760, 4522.94871851, 4526.28205184, 4523.97435953, 4461.53846196, 4367.69230797, 4393.58974387, 4470.38461587, 4536.15384678, 4444.48717991, 4629.61538545, 4129.35897408,0
4320.25641040, 4498.46153902, 4457.94871837, 4521.92307748, 4492.69230818, 4511.66666723, 4476.15384664, 4370.89743618, 4391.15384644, 4453.46153888, 4526.15384671, 4444.61538504, 4660.89743680, 4128.58974332,0
4316.02564117, 4480.89743639, 4448.71794914, 4497.94871851, 4455.51282093, 4495.38461587, 4461.79487222, 4368.33333362, 4388.07692336, 4445.00000042, 4521.79487235, 4438.71794914, 4646.79487263, 4123.07692280,0
4306.02564117, 4466.41025690, 4424.87179522, 4478.46153895, 4459.61538504, 4466.66666716, 4422.94871830, 4352.05128226, 4376.53846182, 4449.87179529, 4517.82051338, 4418.46153881, 4604.74359051, 4122.69230742,0
4313.84615399, 4478.58974408, 4429.23076958, 4491.15384664, 4471.66666716, 4460.12820555, 4431.15384657, 4348.97435919, 4377.82051310, 4467.05128254, 4527.82051338, 4425.25641061, 4622.05128282, 4124.10256383,0
4310.12820527, 4476.41025690, 4436.28205170, 4495.12820562, 4482.69230818, 4470.51282100, 4438.20512863, 4349.61538483, 4383.71794900, 4464.61538511, 4535.64102627, 4435.00000042, 4654.87179571, 4123.46153819,0
4302.94871809, 4463.07692350, 4426.79487215, 4489.10256459, 4498.33333389, 4461.92307734, 4408.84615420, 4337.69230790, 4368.97435926, 4434.87179529, 4523.07692364, 4423.84615420, 4638.07692391, 4123.84615357,0
4310.64102578, 4468.07692357, 4423.71794907, 4485.12820562, 4473.07692357, 4444.23076965, 4396.15384644, 4327.05128219, 4355.76923098, 4411.92307727, 4506.41025697, 4418.33333368, 4618.33333410, 4126.79487152,0
4302.30769245, 4440.64102606, 4410.00000035, 4455.89743632, 4422.69230804, 4425.64102599, 4397.69230797, 4320.51282066, 4354.10256431, 4409.35897471, 4492.69230818, 4403.97435933, 4605.25641102, 4127.05128178,0
4291.53846161, 4416.28205163, 4398.97435933, 4442.94871837, 4416.15384651, 4422.82051317, 4399.48717984, 4324.35897450, 4352.43589765, 4411.41025676, 4484.48717998, 4388.71794900, 4590.51282121, 4125.12820485,0
4297.69230777, 4447.82051324, 4411.92307727, 4467.94871844, 4437.69230811, 4443.07692350, 4413.20512856, 4342.30769252, 4361.02564124, 4409.35897471, 4481.92307741, 4398.71794907, 4602.69230846, 4123.71794844,0
4301.02564117, 4455.25641068, 4411.41025676, 4464.48717998, 4438.07692350, 4447.05128247, 4415.51282086, 4349.74358996, 4366.53846182, 4403.33333368, 4477.17948767, 4401.15384651, 4602.56410333, 4123.71794844,0
4311.66666681, 4434.74359016, 4413.84615420, 4450.12820555, 4429.48717984, 4447.94871837, 4431.15384657, 4355.38461560, 4369.74359003, 4408.58974394, 4485.25641075, 4407.30769266, 4598.71794949, 4127.56410229,0
4324.35897450, 4455.38461581, 4439.35897478, 4479.61538511, 4441.28205170, 4475.00000049, 4462.17948760, 4366.28205156, 4382.94871823, 4428.84615420, 4504.35897492, 4436.15384657, 4612.05128282, 4127.43589716,0
4316.28205142, 4469.23076972, 4437.56410298, 4495.51282100, 4461.79487222, 4474.10256459, 4440.64102606, 4353.20512842, 4379.74359003, 4429.35897471, 4499.10256466, 4434.87179529, 4612.94871872, 4124.35897408,0
4306.66666681, 4446.92307734, 4417.94871830, 4471.92307741, 4455.00000042, 4438.84615427, 4412.43589779, 4342.05128226, 4364.23076944, 4407.82051317, 4479.48717998, 4413.07692343, 4605.64102641, 4124.48717921,0
4307.82051296, 4434.10256452, 4411.28205163, 4458.07692350, 4429.87179522, 4433.33333375, 4425.00000035, 4349.10256431, 4361.41025662, 4396.28205156, 4469.74359023, 4407.56410292, 4587.56410326, 4124.10256383,0
4303.07692322, 4432.82051324, 4400.64102599, 4457.94871837, 4429.74359009, 4439.23076965, 4425.12820548, 4342.43589765, 4360.64102585, 4402.05128240, 4465.51282100, 4398.58974394, 4568.33333403, 4122.69230742,0
4305.00000014, 4449.35897478, 4405.38461574, 4472.82051331, 4459.74359016, 4440.76923119, 4415.64102599, 4340.38461560, 4364.74358996, 4414.35897471, 4471.28205177, 4403.20512856, 4590.89743660, 4123.33333306,0
4316.02564117, 4456.15384657, 4419.35897471, 4484.23076972, 4460.12820555, 4453.84615427, 4415.64102599, 4347.94871816, 4369.23076951, 4410.89743625, 4473.84615434, 4413.46153881, 4610.00000077, 4125.25640998,0
4310.00000014, 4443.07692350, 4409.48717984, 4459.87179529, 4423.20512856, 4452.05128247, 4416.41025676, 4342.82051303, 4362.69230790, 4399.23076958, 4460.25641068, 4398.71794907, 4584.10256480, 4124.99999973,0
4303.33333348, 4449.74359016, 4404.74359009, 4446.79487222, 4427.17948753, 4432.56410298, 4424.74359009, 4345.89743611, 4363.46153867, 4403.33333368, 4457.82051324, 4393.07692336, 4566.53846224, 4122.17948691,0
4313.84615399, 4450.38461581, 4416.66666702, 4468.46153895, 4443.07692350, 4441.02564145, 4433.46153888, 4359.48717970, 4375.64102592, 4420.89743625, 4476.28205177, 4407.43589779, 4581.41025711, 4123.71794844,0
4316.79487194, 4426.15384651, 4422.94871830, 4479.48717998, 4428.20512856, 4468.71794921, 4432.56410298, 4361.53846175, 4380.64102592, 4431.79487222, 4495.76923126, 4415.12820548, 4602.69230846, 4127.69230742,0
4312.56410271, 4448.58974401, 4427.05128240, 4474.87179536, 4436.66666709, 4463.84615434, 4428.71794907, 4356.15384637, 4376.79487208, 4426.02564138, 4499.10256466, 4415.25641061, 4606.41025718, 4126.92307665,0
4315.38461553, 4490.51282100, 4426.66666702, 4478.58974408, 4474.48717998, 4444.61538504, 4417.05128240, 4350.25641047, 4371.15384644, 4411.53846189, 4485.00000049, 4411.79487215, 4590.00000070, 4123.84615357,0
4316.15384630, 4455.76923119, 4420.76923112, 4483.07692357, 4472.17948767, 4442.05128247, 4416.28205163, 4350.89743611, 4369.74359003, 4409.10256445, 4480.12820562, 4411.02564138, 4587.82051352, 4123.33333306,0
4320.51282066, 4415.89743625, 4420.76923112, 4473.71794921, 4428.46153881, 4444.10256452, 4430.12820548, 4357.56410278, 4369.48717977, 4405.76923112, 4480.12820562, 4418.46153881, 4588.33333403, 4126.92307665,0
4317.69230784, 4425.64102599, 4413.33333368, 4457.94871837, 4420.89743625, 4431.28205170, 4414.74359009, 4347.30769252, 4358.58974380, 4379.87179515, 4458.20512863, 4407.82051317, 4550.64102627, 4127.82051255,0
4302.94871809, 4427.05128240, 4398.46153881, 4447.30769273, 4425.64102599, 4428.20512856, 4396.28205156, 4334.10256431, 4347.69230790, 4368.20512849, 4439.23076965, 4382.69230797, 4519.61538518, 4121.66666639,0
4306.28205142, 4425.51282086, 4397.05128233, 4446.92307734, 4403.20512856, 4436.66666709, 4414.87179522, 4342.82051303, 4351.79487201, 4380.89743618, 4441.15384657, 4380.00000028, 4545.25641089, 4122.56410229,0
4311.02564117, 4420.89743625, 4396.28205156, 4450.51282093, 4400.25641061, 4427.56410292, 4420.38461574, 4345.64102585, 4353.71794893, 4376.15384644, 4442.30769273, 4387.30769259, 4557.82051345, 4126.53846126,0
4299.10256418, 4393.07692336, 4384.61538490, 4441.28205170, 4421.02564138, 4421.15384651, 4393.84615413, 4331.53846168, 4348.58974380, 4364.61538483, 4438.33333375, 4378.20512849, 4522.69230825, 4122.05128178,0
4292.82051289, 4378.07692336, 4371.02564131, 4418.20512856, 4419.48717984, 4412.94871830, 4371.41025669, 4326.28205142, 4344.61538483, 4371.53846182, 4432.69230811, 4357.94871816, 4495.12820562, 4121.92307665,0
4296.28205136, 4376.28205156, 4363.58974380, 4403.71794907, 4387.17948746, 4394.61538490, 4371.41025669, 4332.69230790, 4345.25641047, 4375.51282079, 4423.97435933, 4351.79487201, 4516.02564159, 4127.56410229,0
4299.35897443, 4372.94871823, 4374.48717977, 4415.76923112, 4383.97435926, 4397.56410285, 4380.76923105, 4337.94871816, 4356.15384637, 4374.35897464, 4428.71794907, 4366.28205156, 4540.76923140, 4128.71794844,0
4306.66666681, 4396.66666695, 4399.35897471, 4440.00000042, 4405.51282086, 4417.30769266, 4393.07692336, 4345.12820534, 4370.38461567, 4403.97435933, 4458.97435940, 4386.15384644, 4545.25641089, 4126.28205101,0
4316.41025655, 4422.30769266, 4412.69230804, 4451.92307734, 4406.66666702, 4418.71794907, 4403.97435933, 4354.10256431, 4372.94871823, 4426.79487215, 4480.12820562, 4401.02564138, 4557.82051345, 4124.87179460,0
4318.07692322, 4408.97435933, 4406.02564138, 4443.71794914, 4406.15384651, 4405.89743625, 4403.58974394, 4355.12820534, 4366.28205156, 4404.35897471, 4467.56410305, 4401.79487215, 4559.87179550, 4125.12820485,0
4309.87179501, 4393.07692336, 4396.41025669, 4432.43589786, 4420.76923112, 4408.97435933, 4392.82051310, 4347.05128226, 4363.46153867, 4393.46153874, 4452.05128247, 4388.58974387, 4531.02564165, 4122.17948691,0
4308.46153860, 4400.76923112, 4393.33333362, 4433.20512863, 4414.35897471, 4415.51282086, 4389.10256438, 4340.76923098, 4362.30769252, 4406.53846189, 4444.23076965, 4380.51282079, 4515.89743646, 4122.82051255,0
4308.07692322, 4404.48717984, 4385.25641054, 4425.64102599, 4386.92307720, 4409.10256445, 4393.58974387, 4338.07692329, 4349.23076944, 4388.58974387, 4428.84615420, 4376.79487208, 4527.43589800, 4123.84615357,0
4297.82051289, 4378.84615413, 4365.25641054, 4404.23076958, 4388.58974387, 4390.25641054, 4378.46153874, 4326.02564117, 4329.35897450, 4346.66666688, 4406.41025676, 4356.66666688, 4494.74359023, 4122.82051255,0
4296.53846161, 4358.71794893, 4357.94871816, 4403.33333368, 4386.53846182, 4380.12820541, 4362.30769252, 4312.43589758, 4321.79487194, 4331.92307707, 4399.61538497, 4345.12820534, 4443.07692350, 4124.61538434,0
4300.25641040, 4374.48717977, 4372.17948746, 4415.89743625, 4364.23076944, 4386.66666695, 4371.28205156, 4315.38461553, 4330.38461553, 4346.41025662, 4406.15384651, 4360.38461560, 4464.61538511, 4122.94871767,0
4299.23076930, 4382.82051310, 4371.66666695, 4411.15384651, 4370.64102592, 4382.05128233, 4372.94871823, 4323.20512835, 4332.56410278, 4349.61538483, 4398.71794907, 4362.17948739, 4492.17948767, 4122.69230742,0
4299.10256418, 4365.51282079, 4361.79487201, 4407.05128240, 4392.43589772, 4379.87179515, 4367.05128233, 4327.69230784, 4332.17948732, 4346.02564124, 4393.33333362, 4353.46153867, 4470.12820562, 4124.61538434,0
4296.79487187, 4359.35897457, 4362.56410278, 4408.46153881, 4385.38461567, 4386.66666695, 4366.92307720, 4328.20512835, 4335.76923098, 4347.56410278, 4395.00000028, 4356.66666688, 4462.56410298, 4122.17948691,0
4298.33333341, 4359.74358996, 4359.10256431, 4397.43589772, 4356.02564124, 4374.23076951, 4356.53846175, 4320.25641040, 4327.17948732, 4336.28205149, 4384.61538490, 4356.66666688, 4480.00000049, 4122.43589716,0
4302.69230784, 4361.02564124, 4357.30769252, 4389.61538490, 4346.92307714, 4360.38461560, 4354.74358996, 4315.89743604, 4323.07692322, 4322.82051296, 4377.43589772, 4352.05128226, 4463.58974408, 4123.07692280,0
4302.56410271, 4364.23076944, 4369.35897464, 4396.92307720, 4364.61538483, 4376.53846182, 4377.17948746, 4329.48717963, 4339.35897457, 4337.69230790, 4392.69230797, 4357.82051303, 4452.56410298, 4121.66666639,0
4298.33333341, 4359.61538483, 4372.05128233, 4403.20512856, 4392.17948746, 4389.87179515, 4380.89743618, 4341.28205149, 4350.89743611, 4356.02564124, 4404.23076958, 4364.74358996, 4481.53846203, 4121.53846126,0
4294.48717956, 4351.92307714, 4351.79487201, 4390.89743618, 4384.48717977, 4375.12820541, 4363.33333355, 4331.28205142, 4339.23076944, 4343.71794893, 4385.64102592, 4350.00000021, 4477.56410305, 4121.02564075,0
4298.07692315, 4345.51282073, 4346.92307714, 4378.46153874, 4348.84615406, 4372.82051310, 4367.56410285, 4324.23076937, 4332.56410278, 4338.46153867, 4376.79487208, 4337.82051303, 4449.87179529, 4122.69230742,0
4305.38461553, 4357.56410278, 4368.46153874, 4399.10256445, 4365.12820541, 4392.69230797, 4378.33333362, 4333.46153867, 4345.25641047, 4364.10256431, 4406.15384651, 4359.61538483, 4472.17948767, 4121.92307665,0
4307.43589758, 4387.94871823, 4376.92307720, 4419.35897471, 4396.02564131, 4388.84615413, 4377.94871823, 4336.79487201, 4351.41025662, 4378.58974387, 4427.82051317, 4381.53846182, 4507.94871851, 4121.02564075,0
4297.69230777, 4372.82051310, 4357.05128226, 4403.58974394, 4377.17948746, 4374.87179515, 4367.69230797, 4326.41025655, 4343.71794893, 4366.53846182, 4410.38461574, 4365.64102592, 4490.89743639, 4126.28205101,0
4292.05128212, 4341.79487201, 4346.66666688, 4395.38461567, 4362.05128226, 4386.02564131, 4363.46153867, 4326.79487194, 4341.28205149, 4354.10256431, 4397.82051310, 4346.53846175, 4464.23076972, 4126.15384588,0
4299.74358989, 4354.10256431, 4355.89743611, 4404.87179522, 4370.89743618, 4392.17948746, 4377.69230797, 4341.66666688, 4348.07692329, 4355.89743611, 4409.10256445, 4352.69230790, 4467.43589793, 4122.17948691,0
4292.82051289, 4353.46153867, 4346.79487201, 4397.82051310, 4367.17948746, 4370.89743618, 4372.05128233, 4334.10256431, 4340.12820534, 4354.10256431, 4397.94871830, 4350.76923098, 4462.05128247, 4123.20512793,0
4286.41025648, 4334.35897457, 4334.48717970, 4384.10256438, 4348.07692329, 4350.76923098, 4350.89743611, 4316.15384630, 4325.89743604, 4348.46153867, 4378.20512849, 4339.23076944, 4450.38461581, 4124.35897408,0
4300.25641040, 4356.41025662, 4351.02564124, 4385.76923105, 4342.82051303, 4365.64102592, 4360.25641047, 4324.61538476, 4335.76923098, 4357.82051303, 4399.48717984, 4351.02564124, 4465.51282100, 4124.48717921,0
4307.05128219, 4368.20512849, 4369.61538490, 4401.41025676, 4364.23076944, 4397.56410285, 4381.15384644, 4341.66666688, 4354.87179508, 4368.84615413, 4424.74359009, 4374.35897464, 4489.10256459, 4123.97435870,0
4296.92307700, 4340.89743611, 4362.17948739, 4416.28205163, 4389.35897464, 4397.94871830, 4365.89743618, 4335.76923098, 4347.43589765, 4365.00000021, 4410.12820548, 4367.82051310, 4474.74359023, 4122.30769203,0
4289.23076930, 4338.20512842, 4343.58974380, 4398.71794907, 4373.33333362, 4358.07692329, 4351.92307714, 4319.74358989, 4326.66666681, 4350.76923098, 4384.74359003, 4342.43589765, 4443.46153888, 4122.56410229,0
4289.48717956, 4345.38461560, 4336.28205149, 4372.94871823, 4346.28205149, 4333.97435919, 4361.41025662, 4317.05128219, 4322.43589758, 4329.87179501, 4374.87179515, 4335.25641047, 4440.89743632, 4124.10256383,0
4292.30769238, 4338.84615406, 4345.25641047, 4390.76923105, 4357.05128226, 4358.84615406, 4356.92307714, 4321.28205142, 4329.48717963, 4328.20512835, 4378.33333362, 4346.79487201, 4453.33333375, 4122.94871767,0
4302.94871809, 4358.46153867, 4362.30769252, 4411.53846189, 4367.43589772, 4380.25641054, 4355.38461560, 4328.58974373, 4336.02564124, 4348.46153867, 4390.76923105, 4360.76923098, 4456.15384657, 4124.23076896,0
4305.38461553, 4369.35897464, 4361.79487201, 4398.20512856, 4362.56410278, 4368.71794900, 4357.17948739, 4329.35897450, 4335.00000021, 4345.64102585, 4393.07692336, 4361.92307714, 4448.33333375, 4124.61538434,0
4293.46153853, 4348.07692329, 4351.28205149, 4394.35897464, 4364.61538483, 4361.28205149, 4348.46153867, 4323.07692322, 4332.82051303, 4327.30769245, 4385.12820541, 4355.76923098, 4440.76923119, 4120.38461511,0
4291.28205136, 4339.48717970, 4347.56410278, 4398.20512856, 4348.97435919, 4360.25641047, 4352.05128226, 4325.64102578, 4336.79487201, 4344.61538483, 4383.20512849, 4349.10256431, 4436.79487222, 4120.12820485,0
4291.92307700, 4335.51282073, 4333.20512842, 4372.69230797, 4328.58974373, 4345.25641047, 4355.38461560, 4326.92307707, 4328.58974373, 4344.87179508, 4369.74359003, 4331.66666681, 4434.48717991, 4121.92307665,0
4282.17948725, 4310.12820527, 4314.61538476, 4349.61538483, 4345.12820534, 4343.20512842, 4334.35897457, 4320.76923091, 4313.33333348, 4292.43589751, 4344.61538483, 4313.46153860, 4411.15384651, 4121.66666639,0
4275.76923084, 4293.71794879, 4305.89743604, 4352.30769252, 4350.76923098, 4346.92307714, 4312.17948732, 4310.12820527, 4310.00000014, 4279.23076930, 4334.48717970, 4305.25641040, 4379.35897464, 4122.94871767,0
4278.71794879, 4310.51282066, 4311.53846168, 4353.20512842, 4323.07692322, 4333.84615406, 4320.89743604, 4306.28205142, 4315.64102578, 4314.74358989, 4346.15384637, 4312.30769245, 4388.33333362, 4121.28205101,0
4292.43589751, 4336.02564124, 4340.64102585, 4368.07692336, 4327.69230784, 4337.30769252, 4346.92307714, 4320.00000014, 4329.23076937, 4340.25641047, 4377.94871823, 4342.30769252, 4440.64102606, 4118.58974332,0
4311.66666681, 4348.33333355, 4367.30769259, 4391.92307720, 4352.43589765, 4352.82051303, 4367.17948746, 4335.38461560, 4347.56410278, 4358.33333355, 4402.30769266, 4368.46153874, 4474.23076972, 4121.53846126,0
4308.58974373, 4355.25641047, 4363.71794893, 4391.15384644, 4356.53846175, 4364.23076944, 4371.53846182, 4335.12820534, 4348.71794893, 4369.61538490, 4396.53846182, 4361.28205149, 4454.74359016, 4122.17948691,0
4289.35897443, 4342.05128226, 4343.07692329, 4372.69230797, 4351.92307714, 4363.71794893, 4348.97435919, 4326.79487194, 4330.64102578, 4344.35897457, 4377.56410285, 4337.05128226, 4431.92307734, 4119.74358947,0
4285.89743597, 4316.28205142, 4335.64102585, 4369.61538490, 4345.38461560, 4341.79487201, 4328.46153860, 4325.25641040, 4324.35897450, 4321.41025655, 4374.10256438, 4327.05128219, 4432.82051324, 4118.20512793,0
4291.15384623, 4316.92307707, 4342.05128226, 4372.30769259, 4333.84615406, 4329.35897450, 4341.15384637, 4322.43589758, 4329.61538476, 4332.30769252, 4377.94871823, 4334.74358996, 4433.20512863, 4118.58974332,0
4285.25641033, 4312.69230784, 4329.48717963, 4344.48717970, 4322.56410271, 4333.58974380, 4345.25641047, 4308.71794886, 4318.58974373, 4327.43589758, 4355.25641047, 4325.64102578, 4417.30769266, 4119.87179460,0
4278.84615392, 4290.12820520, 4309.74358989, 4335.12820534, 4324.23076937, 4330.12820527, 4325.38461553, 4305.89743604, 4308.58974373, 4313.58974373, 4334.74358996, 4311.02564117, 4411.66666702, 4120.12820485,0
4283.84615392, 4301.79487194, 4319.23076937, 4364.35897457, 4335.51282073, 4328.20512835, 4325.76923091, 4318.20512835, 4320.51282066, 4310.89743604, 4345.89743611, 4321.92307707, 4427.82051317, 4120.12820485,0
4285.89743597, 4320.51282066, 4332.94871816, 4366.66666695, 4334.35897457, 4337.05128226, 4335.38461560, 4314.87179501, 4325.38461553, 4313.07692322, 4354.48717970, 4330.64102578, 4425.38461574, 4118.46153819,0
4281.79487187, 4306.92307707, 4321.41025655, 4345.38461560, 4322.30769245, 4334.87179508, 4324.61538476, 4302.82051296, 4312.30769245, 4318.84615399, 4348.97435919, 4320.25641040, 4416.41025676, 4118.46153819,0
4284.61538469, 4302.05128219, 4316.53846168, 4348.71794893, 4313.20512835, 4325.12820527, 4324.87179501, 4311.02564117, 4312.05128219, 4320.38461553, 4354.87179508, 4318.97435912, 4427.43589779, 4119.48717921,0
4288.46153853, 4309.74358989, 4326.28205142, 4360.12820534, 4312.05128219, 4325.25641040, 4332.69230790, 4316.53846168, 4324.74358989, 4317.43589758, 4364.35897457, 4326.53846168, 4439.35897478, 4118.58974332,0
4287.05128212, 4299.74358989, 4321.79487194, 4354.35897457, 4328.84615399, 4325.25641040, 4316.53846168, 4307.17948732, 4326.79487194, 4308.97435912, 4356.92307714, 4326.53846168, 4428.84615420, 4120.64102537,0
4286.41025648, 4297.82051289, 4315.00000014, 4349.74358996, 4335.12820534, 4324.87179501, 4314.48717963, 4308.33333348, 4322.82051296, 4314.48717963, 4354.23076944, 4326.02564117, 4422.43589779, 4120.64102537,0
4284.74358982, 4310.89743604, 4319.74358989, 4345.64102585, 4321.15384630, 4328.58974373, 4326.92307707, 4317.94871809, 4320.76923091, 4320.89743604, 4355.76923098, 4325.76923091, 4461.28205170, 4118.71794844,0
4288.58974366, 4306.79487194, 4321.41025655, 4340.89743611, 4324.35897450, 4321.15384630, 4319.87179501, 4320.25641040, 4320.51282066, 4314.87179501, 4346.41025662, 4320.64102578, 4477.94871844, 4121.53846126,0
4286.15384623, 4282.05128212, 4305.51282066, 4330.51282066, 4315.00000014, 4307.56410271, 4309.35897450, 4306.92307707, 4317.94871809, 4308.46153860, 4332.30769252, 4308.84615399, 4421.02564138, 4119.74358947,0
4271.15384623, 4255.00000000, 4279.61538469, 4298.07692315, 4266.41025641, 4290.51282059, 4301.41025655, 4289.61538469, 4302.43589758, 4289.35897443, 4312.43589758, 4284.87179495, 4376.28205156, 4115.64102537,0
4270.25641033, 4250.38461539, 4277.17948725, 4283.46153853, 4262.56410257, 4280.00000007, 4293.46153853, 4295.12820520, 4293.33333341, 4266.28205129, 4300.76923091, 4277.17948725, 4397.69230797, 4118.20512793,0
4282.56410264, 4272.05128212, 4298.07692315, 4309.61538476, 4301.41025655, 4297.56410264, 4301.79487194, 4311.41025655, 4311.02564117, 4284.23076930, 4320.38461553, 4296.15384623, 4425.25641061, 4119.99999973,0
4285.76923084, 4290.51282059, 4308.46153860, 4329.48717963, 4305.12820527, 4317.17948732, 4314.48717963, 4311.92307707, 4328.07692322, 4315.64102578, 4342.69230790, 4308.46153860, 4427.05128240, 4117.94871767,0
4278.71794879, 4287.17948725, 4301.92307707, 4321.41025655, 4295.64102571, 4308.33333348, 4309.87179501, 4307.82051296, 4327.30769245, 4321.66666681, 4336.15384637, 4303.20512835, 4425.76923112, 4115.12820485,0
4274.87179495, 4265.76923077, 4289.74358982, 4307.43589758, 4300.12820527, 4294.74358982, 4301.02564117, 4308.71794886, 4318.58974373, 4314.35897450, 4319.61538476, 4291.02564110, 4409.10256445, 4116.92307665,0
4276.66666674, 4251.41025641, 4283.07692315, 4297.82051289, 4290.64102571, 4297.17948725, 4305.64102578, 4305.89743604, 4311.02564117, 4287.05128212, 4318.20512835, 4286.92307700, 4391.79487208, 4121.28205101,0
4277.69230777, 4265.00000000, 4287.94871802, 4297.82051289, 4280.76923084, 4298.20512828, 4307.17948732, 4296.79487187, 4306.79487194, 4259.74358975, 4324.10256425, 4293.71794879, 4396.53846182, 4121.66666639,0
4280.12820520, 4278.46153853, 4289.48717956, 4306.02564117, 4286.79487187, 4296.41025648, 4294.10256418, 4288.97435905, 4300.00000014, 4267.17948725, 4324.61538476, 4294.35897443, 4395.89743618, 4120.51282024,0
4278.07692315, 4264.48717949, 4280.12820520, 4302.94871809, 4285.12820520, 4295.89743597, 4291.41025648, 4288.20512828, 4291.92307700, 4270.89743597, 4320.00000014, 4283.58974366, 4386.66666695, 4118.97435870,0
4271.92307700, 4242.94871795, 4271.79487187, 4284.48717956, 4267.82051289, 4282.05128212, 4296.92307700, 4286.28205136, 4292.69230777, 4265.64102564, 4308.58974373, 4272.56410264, 4370.89743618, 4122.94871767,0
4273.33333341, 4246.53846154, 4272.17948725, 4273.33333341, 4257.05128206, 4275.64102571, 4288.84615392, 4284.87179495, 4298.97435905, 4278.46153853, 4297.17948725, 4272.94871802, 4375.25641054, 4127.82051255,0
4276.66666674, 4254.87179488, 4275.25641033, 4278.33333341, 4259.23076923, 4279.35897443, 4284.23076930, 4289.35897443, 4298.58974366, 4277.94871802, 4300.12820527, 4279.23076930, 4397.43589772, 4125.12820485,0
4277.17948725, 4233.07692301, 4269.87179495, 4272.05128212, 4243.46153847, 4264.61538462, 4285.76923084, 4285.38461546, 4290.64102571, 4262.43589744, 4304.23076937, 4272.05128212, 4372.82051310, 4126.28205101,0
4277.30769238, 4228.20512814, 4267.56410264, 4264.61538462, 4233.84615385, 4254.61538462, 4277.05128212, 4283.84615392, 4290.38461546, 4275.89743597, 4302.17948732, 4265.25641026, 4346.66666688, 4129.48717921,0
4281.53846161, 4267.82051289, 4286.92307700, 4293.46153853, 4262.94871795, 4273.46153853, 4284.35897443, 4301.41025655, 4313.20512835, 4301.66666681, 4313.58974373, 4289.35897443, 4391.92307720, 4127.17948691,0
4287.30769238, 4277.94871802, 4296.15384623, 4309.74358989, 4285.89743597, 4288.46153853, 4296.53846161, 4305.12820527, 4323.84615399, 4304.61538476, 4322.17948732, 4300.51282066, 4412.30769266, 4127.30769203,0
4275.00000007, 4232.43589737, 4268.71794879, 4279.10256418, 4277.56410264, 4279.35897443, 4273.97435905, 4279.48717956, 4291.53846161, 4289.35897443, 4300.38461553, 4268.58974366, 4349.87179508, 4127.94871767,0
4270.76923084, 4234.61538462, 4261.92307693, 4275.38461546, 4250.89743590, 4278.20512828, 4282.69230777, 4276.79487187, 4274.61538469, 4285.25641033, 4287.94871802, 4263.58974359, 4340.89743611, 4126.41025614,0
4288.71794879, 4280.64102571, 4288.97435905, 4306.41025655, 4249.23076923, 4294.74358982, 4332.69230790, 4304.87179501, 4303.33333348, 4300.25641040, 4308.97435912, 4293.33333341, 4390.76923105, 4124.74358947,0
4293.84615392, 4285.25641033, 4296.66666674, 4309.48717963, 4308.20512835, 4310.76923091, 4325.00000014, 4313.46153860, 4323.84615399, 4313.07692322, 4328.07692322, 4296.92307700, 4390.64102592, 4124.10256383,0
4282.82051289, 4263.97435898, 4282.69230777, 4295.25641033, 4323.46153860, 4303.97435912, 4283.07692315, 4294.10256418, 4306.92307707, 4302.82051296, 4318.58974373, 4281.92307700, 4366.53846182, 4125.12820485,0
4274.23076930, 4247.69230770, 4271.28205136, 4283.58974366, 4237.82051282, 4272.82051289, 4285.51282059, 4275.00000007, 4287.94871802, 4283.20512828, 4300.51282066, 4273.71794879, 4368.20512849, 4125.25640998,0
4276.41025648, 4253.84615385, 4272.69230777, 4269.48717956, 4225.76923070, 4264.61538462, 4293.84615392, 4278.46153853, 4293.71794879, 4275.51282059, 4303.58974373, 4273.58974366, 4362.17948739, 4124.99999973,0
4283.33333341, 4271.53846161, 4285.00000007, 4277.30769238, 4311.92307707, 4285.51282059, 4277.69230777, 4291.28205136, 4305.89743604, 4291.02564110, 4318.58974373, 4285.89743597, 4353.07692329, 4124.99999973,0
4275.89743597, 4249.10256411, 4281.28205136, 4293.58974366, 4316.66666681, 4287.17948725, 4269.10256418, 4290.00000007, 4300.76923091, 4306.15384630, 4316.79487194, 4286.92307700, 4370.64102592, 4123.33333306,0
4262.17948718, 4197.17948704, 4253.20512821, 4273.84615392, 4264.74358975, 4258.46153847, 4260.76923077, 4281.15384623, 4283.71794879, 4286.28205136, 4294.87179495, 4261.02564103, 4358.97435919, 4123.97435870,0
4264.10256411, 4200.76923063, 4242.17948718, 4251.92307693, 4248.97435898, 4248.58974359, 4265.12820513, 4278.46153853, 4278.97435905, 4264.35897436, 4276.53846161, 4249.35897436, 4324.61538476, 4124.87179460,0
4271.02564110, 4235.12820513, 4249.61538462, 4255.00000000, 4226.15384609, 4270.25641033, 4288.20512828, 4275.64102571, 4281.02564110, 4261.02564103, 4267.17948725, 4254.61538462, 4325.25641040, 4124.23076896,0
4266.66666674, 4225.51282045, 4247.56410257, 4252.30769231, 4225.38461532, 4267.05128212, 4284.61538469, 4272.56410264, 4276.28205136, 4252.05128206, 4268.46153853, 4250.25641026, 4327.82051296, 4124.35897408,0
4256.15384616, 4201.53846147, 4249.87179488, 4245.12820513, 4270.25641033, 4238.07692308, 4267.17948725, 4276.53846161, 4275.38461546, 4260.25641026, 4287.56410264, 4253.20512821, 4319.23076937, 4122.56410229,0
4256.66666667, 4209.74358968, 4254.48717949, 4250.38461539, 4260.00000000, 4238.58974359, 4268.84615392, 4276.28205136, 4284.23076930, 4287.43589751, 4303.07692322, 4260.76923077, 4323.33333348, 4122.82051255,0
4270.25641033, 4246.66666667, 4252.17948718, 4243.84615385, 4208.33333327, 4257.82051282, 4273.84615392, 4273.58974366, 4288.46153853, 4281.53846161, 4296.79487187, 4257.17948718, 4321.79487194, 4124.74358947,0
4260.12820513, 4214.99999993, 4228.97435891, 4211.66666660, 4214.61538455, 4235.64102564, 4248.58974359, 4266.02564103, 4268.07692315, 4246.92307693, 4265.64102564, 4235.76923077, 4305.64102578, 4123.71794844,0
4243.33333334, 4165.89743569, 4212.17948711, 4204.61538455, 4244.23076923, 4217.94871788, 4232.94871788, 4265.00000000, 4263.84615385, 4254.35897436, 4266.41025641, 4227.05128199, 4321.79487194, 4122.94871767,0
4263.58974359, 4213.84615378, 4243.97435898, 4242.05128206, 4235.25641026, 4249.35897436, 4270.51282059, 4283.46153853, 4294.10256418, 4294.35897443, 4312.94871809, 4259.35897436, 4350.89743611, 4125.12820485,0
4276.41025648, 4227.30769224, 4263.84615385, 4263.33333334, 4216.02564096, 4252.82051282, 4283.46153853, 4284.10256418, 4291.41025648, 4284.23076930, 4314.10256425, 4273.20512828, 4341.41025662, 4125.25640998,0
4266.28205129, 4194.23076910, 4256.53846154, 4258.58974359, 4216.53846147, 4224.35897429, 4255.64102564, 4271.02564110, 4275.38461546, 4266.15384616, 4294.74358982, 4266.66666674, 4331.79487194, 4121.92307665,0
4278.07692315, 4228.46153840, 4272.56410264, 4270.51282059, 4232.82051275, 4233.20512814, 4254.87179488, 4283.07692315, 4294.87179495, 4300.51282066, 4318.84615399, 4288.20512828, 4358.33333355, 4124.48717921,0
4284.23076930, 4228.33333327, 4272.82051289, 4294.87179495, 4234.74358975, 4253.33333334, 4269.61538469, 4292.30769238, 4297.94871802, 4295.76923084, 4321.15384630, 4291.15384623, 4366.15384644, 4125.76923050,0
4254.48717949, 4164.74358954, 4229.87179481, 4301.02564117, 4215.64102558, 4236.53846154, 4254.87179488, 4274.35897443, 4274.35897443, 4227.69230763, 4272.82051289, 4248.46153847, 4315.89743604, 4119.74358947,0
4245.76923077, 4182.43589730, 4207.43589737, 4304.48717963, 4214.23076917, 4214.74358968, 4234.23076923, 4260.76923077, 4265.89743590, 4209.87179481, 4240.51282052, 4224.74358968, 4264.35897436, 4121.66666639,0
4258.20512821, 4203.33333327, 4206.02564096, 4321.02564117, 4227.69230763, 4211.79487173, 4232.69230763, 4259.61538462, 4262.17948718, 4240.89743590, 4240.12820513, 4225.12820506, 4256.28205129, 4124.99999973,0
4246.28205129, 4143.58974339, 4181.92307679, 4320.12820527, 4202.30769224, 4206.66666660, 4231.15384609, 4255.64102564, 4252.94871795, 4233.84615385, 4240.64102564, 4207.82051275, 4268.33333341, 4121.02564075,0
4237.94871795, 4133.84615357, 4166.92307672, 4310.00000014, 4169.74358961, 4194.23076910, 4225.64102558, 4245.38461539, 4250.64102564, 4205.51282045, 4227.17948711, 4191.92307679, 4278.58974366, 4120.89743562,0
4250.00000000, 4185.64102551, 4189.61538448, 4336.79487201, 4201.79487173, 4199.74358961, 4230.51282045, 4241.15384616, 4256.79487180, 4210.25641019, 4225.25641019, 4209.48717942, 4282.56410264, 4120.64102537,0
4265.76923077, 4231.28205122, 4223.20512814, 4374.61538490, 4219.87179481, 4218.33333327, 4249.74358975, 4258.20512821, 4271.02564110, 4235.12820513, 4265.00000000, 4243.58974359, 4282.69230777, 4117.94871767,0
4275.89743597, 4241.79487180, 4231.79487173, 4389.10256438, 4178.46153833, 4215.76923070, 4248.46153847, 4265.25641026, 4272.30769238, 4245.25641026, 4281.79487187, 4248.58974359, 4273.20512828, 4119.87179460,0
4270.76923084, 4216.53846147, 4222.43589737, 4418.33333368, 4185.76923063, 4212.43589737, 4237.30769231, 4258.97435898, 4263.71794872, 4240.38461539, 4252.30769231, 4235.64102564, 4278.58974366, 4124.23076896,0
4260.89743590, 4193.46153833, 4215.51282045, 4447.17948760, 4229.35897429, 4216.02564096, 4255.00000000, 4264.35897436, 4273.71794879, 4235.89743590, 4253.46153847, 4235.76923077, 4288.20512828, 4123.97435870,0
4250.51282052, 4175.89743576, 4196.53846140, 4439.87179529, 4218.71794865, 4215.51282045, 4251.28205129, 4261.66666667, 4275.00000007, 4229.23076917, 4269.87179495, 4225.64102558, 4275.12820520, 4119.48717921,0
4250.25641026, 4210.51282045, 4184.23076910, 4442.43589786, 4189.99999986, 4225.38461532, 4230.12820506, 4250.89743590, 4259.23076923, 4218.20512814, 4249.87179488, 4209.87179481, 4265.00000000, 4122.05128178,0
4256.28205129, 4258.58974359, 4196.92307679, 4506.28205184, 4189.10256397, 4227.05128199, 4239.10256411, 4256.92307693, 4258.58974359, 4215.51282045, 4241.92307693, 4213.58974352, 4261.15384616, 4123.84615357,0
4240.51282052, 4186.28205115, 4181.66666653, 4548.07692371, 4184.74358961, 4190.12820499, 4228.71794865, 4254.10256411, 4254.48717949, 4205.89743583, 4248.71794872, 4204.35897429, 4262.17948718, 4118.33333306,0
4224.99999993, 4101.79487145, 4145.64102544, 4505.00000056, 4162.05128185, 4159.35897415, 4189.87179474, 4232.17948711, 4234.23076923, 4183.84615371, 4226.02564096, 4178.71794858, 4263.07692308, 4121.53846126,0
4244.35897436, 4186.92307679, 4169.87179474, 4540.38461601, 4164.74358954, 4183.84615371, 4198.46153833, 4234.74358975, 4239.35897436, 4185.25641012, 4217.43589737, 4196.02564089, 4244.61538462, 4124.61538434,0
4257.69230770, 4250.12820513, 4200.76923063, 4629.61538545, 4180.25641012, 4190.38461525, 4223.07692301, 4245.25641026, 4253.46153847, 4204.10256404, 4231.41025634, 4219.48717942, 4222.43589737, 4119.74358947,0
4233.71794865, 4139.61538441, 4156.53846133, 4610.51282128, 4166.66666646, 4152.69230749, 4186.15384602, 4226.92307686, 4231.15384609, 4188.20512807, 4224.23076917, 4191.02564089, 4232.69230763, 4123.58974332,0
4232.43589737, 4141.28205108, 4147.30769210, 4626.28205205, 4157.82051262, 4153.07692287, 4167.94871774, 4222.05128199, 4222.05128199, 4171.53846140, 4218.84615378, 4187.82051269, 4256.41025641, 4128.20512793,0
4259.48717949, 4245.89743590, 4194.87179474, 4712.43589841, 4189.61538448, 4186.79487166, 4204.23076917, 4243.97435898, 4251.79487180, 4193.71794858, 4234.48717949, 4220.64102558, 4261.79487180, 4125.12820485,0
4258.58974359, 4210.76923070, 4194.35897422, 4728.97436002, 4191.53846140, 4185.89743576, 4224.99999993, 4256.15384616, 4264.48717949, 4214.87179481, 4251.66666667, 4222.69230763, 4284.87179495, 4122.30769203,0
4245.76923077, 4160.76923056, 4169.74358961, 4718.46153944, 4151.28205108, 4170.76923063, 4223.58974352, 4251.15384616, 4254.48717949, 4218.07692301, 4256.92307693, 4210.64102558, 4279.61538469, 4121.41025614,0
4254.87179488, 4211.28205122, 4170.76923063, 4737.43589848, 4161.79487159, 4191.79487166, 4219.35897429, 4249.10256411, 4254.48717949, 4221.53846147, 4239.35897436, 4209.35897429, 4246.28205129, 4123.20512793,0
4247.94871795, 4193.58974345, 4156.66666646, 4730.38461643, 4205.51282045, 4203.20512814, 4206.28205122, 4248.97435898, 4254.48717949, 4208.07692301, 4208.97435891, 4191.92307679, 4245.00000000, 4124.35897408,0
4240.51282052, 4157.56410236, 4154.74358954, 4769.10256522, 4182.94871781, 4186.41025628, 4213.46153840, 4250.89743590, 4252.69230770, 4198.58974345, 4247.17948718, 4190.76923063, 4254.23076923, 4121.92307665,0
4255.25641026, 4209.74358968, 4168.97435884, 4821.53846272, 4137.43589723, 4172.56410243, 4228.33333327, 4249.61538462, 4247.43589744, 4192.94871781, 4276.66666674, 4201.92307686, 4237.30769231, 4124.87179460,0
4245.64102564, 4191.15384602, 4143.07692287, 4793.97436016, 4148.97435877, 4163.20512800, 4200.12820499, 4234.35897436, 4227.56410250, 4162.69230749, 4211.15384609, 4175.12820499, 4214.99999993, 4128.84615357,0
4232.82051275, 4133.97435870, 4132.94871767, 4816.41025760, 4166.28205108, 4157.17948697, 4186.15384602, 4230.64102558, 4223.07692301, 4162.69230749, 4203.58974352, 4167.56410236, 4220.38461532, 4125.51282024,0
4244.74358975, 4161.41025621, 4156.92307672, 4890.89743729, 4153.33333313, 4155.51282031, 4210.12820506, 4238.97435898, 4238.33333334, 4181.41025628, 4252.69230770, 4192.17948704, 4238.58974359, 4123.97435870,0
4243.97435898, 4189.48717935, 4141.66666646, 4901.02564242, 4141.66666646, 4154.61538441, 4199.35897422, 4231.28205122, 4231.41025634, 4157.17948697, 4220.64102558, 4177.43589730, 4221.79487173, 4127.30769203,0
4224.87179481, 4174.61538448, 4108.33333306, 4894.61538601, 4147.43589723, 4156.15384595, 4162.94871774, 4218.07692301, 4215.38461532, 4136.79487159, 4200.76923063, 4149.48717928, 4191.66666653, 4126.79487152,0
4219.87179481, 4166.79487159, 4106.02564075, 4928.07692454, 4157.43589723, 4153.71794851, 4157.82051262, 4218.58974352, 4221.41025634, 4163.20512800, 4242.05128206, 4154.35897415, 4201.66666660, 4124.48717921,0
4227.43589737, 4162.43589723, 4110.89743562, 4954.23077069, 4151.53846133, 4134.99999973, 4169.23076910, 4221.79487173, 4225.38461532, 4171.15384602, 4247.69230770, 4161.41025621, 4215.12820506, 4125.64102537,0
4236.28205129, 4178.46153833, 4121.02564075, 4964.74359128, 4147.82051262, 4143.33333313, 4178.07692294, 4224.74358968, 4225.89743583, 4156.15384595, 4264.23076923, 4170.51282038, 4216.02564096, 4126.79487152,0
4244.48717949, 4235.76923077, 4144.35897415, 4975.51282205, 4178.58974345, 4173.71794858, 4186.53846140, 4233.71794865, 4236.41025641, 4168.58974345, 4294.74358982, 4192.17948704, 4225.64102558, 4124.10256383,0
4246.41025641, 4264.87179488, 4146.28205108, 4966.02564256, 4198.33333320, 4166.02564082, 4183.97435884, 4234.23076923, 4236.28205129, 4188.07692294, 4279.87179495, 4189.23076910, 4219.23076917, 4124.61538434,0
4259.10256411, 4296.15384623, 4160.51282031, 4981.41025794, 4160.76923056, 4169.99999986, 4210.51282045, 4240.00000000, 4241.15384616, 4208.97435891, 4319.74358989, 4199.61538448, 4252.69230770, 4128.46153819,0
4260.51282052, 4300.38461553, 4171.79487166, 5007.05128365, 4145.89743569, 4191.41025628, 4234.87179488, 4247.05128206, 4248.84615385, 4211.41025634, 4353.20512842, 4210.51282045, 4272.30769238, 4129.23076896,0
4237.56410257, 4236.66666667, 4136.15384595, 4971.66666820, 4176.53846140, 4176.15384602, 4207.30769224, 4235.89743590, 4235.89743590, 4183.84615371, 4309.48717963, 4175.76923063, 4207.82051275, 4126.79487152,0
4223.84615378, 4206.92307686, 4111.02564075, 4922.17948857, 4177.69230756, 4162.17948697, 4185.89743576, 4229.48717942, 4226.15384609, 4158.71794851, 4319.48717963, 4157.69230749, 4184.35897422, 4124.48717921,0
4231.28205122, 4231.92307686, 4117.56410229, 4917.43589883, 4157.82051262, 4164.48717928, 4191.28205115, 4226.53846147, 4222.56410250, 4147.05128185, 4342.05128226, 4165.38461518, 4202.17948711, 4126.92307665,0
4235.76923077, 4238.84615385, 4117.82051255, 4917.69230909, 4158.84615364, 4149.23076903, 4182.94871781, 4213.46153840, 4213.07692301, 4139.61538441, 4297.82051289, 4153.71794851, 4176.92307679, 4128.71794844,0
4233.33333327, 4234.48717949, 4123.71794844, 4905.25641165, 4151.66666646, 4152.94871774, 4176.92307679, 4213.33333327, 4217.17948711, 4135.25640998, 4302.17948732, 4156.41025621, 4192.05128192, 4125.12820485,0
4231.02564096, 4234.35897436, 4128.07692280, 4893.07692447, 4136.66666646, 4171.92307679, 4181.41025628, 4221.66666660, 4224.10256404, 4140.25641005, 4343.97435919, 4168.20512807, 4218.20512814, 4123.97435870,0
4217.30769224, 4202.69230763, 4098.97435863, 4866.79487312, 4147.82051262, 4141.15384595, 4161.66666646, 4207.30769224, 4205.76923070, 4137.43589723, 4328.46153860, 4135.89743569, 4161.02564082, 4127.17948691,0
4213.84615378, 4184.61538448, 4084.87179453, 4846.15384741, 4137.56410236, 4107.82051255, 4157.82051262, 4196.28205115, 4195.25641012, 4130.64102537, 4310.76923091, 4114.23076896, 4136.28205108, 4127.05128178,0
4229.74358968, 4221.92307686, 4121.53846126, 4863.97436030, 4104.48717921, 4141.28205108, 4202.82051275, 4219.10256404, 4218.84615378, 4143.33333313, 4348.33333355, 4154.23076903, 4189.99999986, 4124.23076896,0
4227.94871788, 4226.92307686, 4131.79487152, 4861.66666799, 4129.10256383, 4168.20512807, 4199.74358961, 4225.76923070, 4224.61538455, 4150.76923056, 4369.87179515, 4164.35897415, 4185.64102551, 4126.66666639,0
4212.69230763, 4196.41025628, 4105.76923050, 4827.69230895, 4191.66666653, 4149.48717928, 4147.43589723, 4207.69230763, 4207.43589737, 4140.89743569, 4345.00000021, 4134.10256383, 4160.76923056, 4127.94871767,0
4216.79487173, 4202.69230763, 4121.15384588, 4835.76923202, 4209.61538455, 4151.02564082, 4154.87179467, 4211.79487173, 4216.28205122, 4161.02564082, 4351.02564124, 4152.43589723, 4197.82051269, 4125.51282024,0
4231.66666660, 4231.53846147, 4160.64102544, 4858.20512953, 4195.76923063, 4168.84615371, 4191.92307679, 4224.35897429, 4235.76923077, 4181.79487166, 4390.89743618, 4188.84615371, 4215.12820506, 4125.76923050,0
4228.97435891, 4247.82051282, 4164.87179467, 4822.17948836, 4187.94871781, 4165.38461518, 4185.76923063, 4217.17948711, 4226.53846147, 4153.58974339, 4386.15384644, 4178.84615371, 4188.58974345, 4123.33333306,0
4218.20512814, 4235.51282052, 4146.28205108, 4748.58974464, 4186.02564089, 4157.69230749, 4164.35897415, 4204.87179481, 4203.71794865, 4130.64102537, 4346.28205149, 4154.99999980, 4173.58974345, 4124.35897408,0
4219.74358968, 4206.92307686, 4141.53846133, 4680.51282142, 4189.99999986, 4160.89743569, 4159.61538441, 4204.74358968, 4200.89743576, 4140.38461518, 4329.87179501, 4154.48717928, 4177.30769217, 4127.94871767,0
4224.35897429, 4211.79487173, 4160.64102544, 4631.41025725, 4154.74358954, 4165.76923056, 4184.87179474, 4214.99999993, 4219.35897429, 4153.46153826, 4340.25641047, 4171.66666653, 4193.71794858, 4125.12820485,0
4226.66666660, 4233.33333327, 4177.30769217, 4587.17948788, 4125.89743562, 4163.46153826, 4209.35897429, 4223.33333327, 4234.35897436, 4164.35897415, 4346.41025662, 4180.12820499, 4206.66666660, 4123.97435870,0
4220.64102558, 4218.46153840, 4164.35897415, 4512.05128261, 4178.58974345, 4156.28205108, 4183.71794858, 4214.35897429, 4221.28205122, 4162.43589723, 4333.58974380, 4157.30769210, 4179.48717935, 4123.97435870,0
4210.25641019, 4189.61538448, 4147.05128185, 4428.71794907, 4210.25641019, 4154.23076903, 4150.51282031, 4202.43589737, 4205.12820506, 4148.07692287, 4314.48717963, 4131.92307665, 4147.05128185, 4120.12820485,0
4209.35897429, 4173.33333320, 4149.74358954, 4377.56410285, 4156.41025621, 4155.12820492, 4165.38461518, 4210.64102558, 4214.74358968, 4146.15384595, 4300.25641040, 4130.12820485, 4154.35897415, 4119.48717921,0
4200.76923063, 4137.43589723, 4139.48717928, 4323.71794886, 4131.79487152, 4137.82051262, 4163.20512800, 4209.48717942, 4211.92307686, 4136.79487159, 4282.30769238, 4121.28205101, 4149.48717928, 4122.17948691,0
4195.51282038, 4107.30769203, 4132.43589716, 4263.84615385, 4149.74358954, 4126.53846126, 4143.46153826, 4194.61538448, 4191.92307679, 4111.02564075, 4268.07692315, 4117.56410229, 4138.71794851, 4122.17948691,0
4205.38461532, 4111.02564075, 4152.43589723, 4218.58974352, 4138.46153826, 4134.35897408, 4160.25641005, 4193.07692294, 4188.97435884, 4103.33333306, 4272.30769238, 4132.17948691, 4144.23076903, 4121.53846126,0
4204.23076917, 4109.99999973, 4151.02564082, 4168.58974345, 4147.17948697, 4131.66666639, 4150.76923056, 4188.97435884, 4187.30769217, 4108.84615357, 4269.61538469, 4123.84615357, 4127.56410229, 4123.20512793,0
4203.20512814, 4110.89743562, 4143.97435877, 4122.94871767, 4148.20512800, 4139.74358954, 4135.51282031, 4183.97435884, 4181.41025628, 4104.10256383, 4263.20512821, 4114.10256383, 4123.58974332, 4121.41025614,0
4214.23076917, 4132.43589716, 4168.97435884, 4098.97435863, 4122.05128178, 4161.28205108, 4169.10256397, 4196.02564089, 4192.56410243, 4101.15384581, 4277.56410264, 4137.82051262, 4150.76923056, 4117.69230742,0
4211.66666660, 4121.53846126, 4167.94871774, 4067.94871754, 4150.38461518, 4145.76923056, 4160.64102544, 4193.46153833, 4190.51282038, 4099.35897402, 4270.89743597, 4134.74358947, 4131.79487152, 4122.94871767,0
4202.82051275, 4095.38461504, 4139.48717928, 4029.10256362, 4172.17948704, 4105.76923050, 4115.38461511, 4175.64102551, 4170.25641012, 4087.43589709, 4238.20512821, 4104.61538434, 4098.84615350, 4127.43589716,0
